Time/s	Absorbance (460 nm)
10.393	0.00356
21.269	0.00392
31.285	0.00432
41.391	0.00474
53.869	0.00522
64.891	0.0056
75.626	0.00589
86.499	0.00608
97.052	0.0061
107.09	0.00588
117.89	0.00538
128.5	0.00475
138.58	0.00423
149.11	0.00393
159.95	0.00388
170.98	0.00404
181.76	0.00432
192.87	0.00468
205.45	0.00513
215.59	0.00549
225.61	0.00584
236.47	0.00621
246.47	0.00651
257.29	0.00677
267.49	0.00688
278.09	0.00671
288.96	0.00605
299.71	0.005
310.33	0.00408
321.1	0.00358
331.19	0.00351
341.71	0.00369
352.61	0.00404
362.89	0.00444
373.17	0.00486
383.89	0.00529
394.55	0.00569
405.58	0.00607
415.76	0.00636
426.27	0.00657
436.63	0.00661
447.48	0.00632
457.67	0.00566
467.94	0.00477
478.07	0.00405
488.51	0.00367
499.29	0.00363
509.6	0.00382
520.06	0.00415
531.43	0.00457
542.52	0.00501
554.13	0.00547
564.31	0.00585
575.03	0.00622
585.82	0.00656
596.54	0.00682
606.75	0.00693
617.44	0.00673
627.78	0.00605
637.98	0.00503
648.07	0.00411
658.23	0.00359
668.43	0.00348
679.13	0.00364
689.22	0.00396
700.13	0.00437
712.41	0.00487
723.17	0.0053
734.01	0.00569
744.29	0.00603
755.24	0.00631
766.02	0.00645
776.26	0.00638
787.21	0.00596
798.22	0.00518
808.37	0.00442
818.55	0.0039
829.45	0.00369
840.3	0.00378
851.04	0.00404
862.49	0.00443
875.26	0.00492
885.75	0.00533
895.93	0.00572
906.37	0.0061
916.57	0.00645
926.98	0.00679
937.31	0.00706
947.83	0.00719
957.97	0.00703
968.26	0.00634
979.05	0.00512
989.6	0.00403
999.91	0.00347
1010.3	0.00337
1021.1	0.00357
1031.8	0.00394
1042.6	0.00437
1055	0.00487
1066.3	0.0053
1076.4	0.00564
1087	0.00592
1098.1	0.0061
1109.3	0.00608
1119.3	0.00582
1130.5	0.00526
1141.3	0.00461
1151.6	0.00412
1162.6	0.00388
1173.2	0.0039
1184.2	0.0041
1195.4	0.00442
1207.6	0.00483
1219.5	0.00526
1229.7	0.00563
1240	0.00598
1250.2	0.00631
1260.8	0.00662
1270.8	0.00683
1281.5	0.00688
1292	0.00658
1302	0.00584
1312.2	0.00483
1322.2	0.00399
1332.5	0.00356
1343	0.00351
1353.3	0.00371
1364.2	0.00407
1374.7	0.00448
1385.1	0.00491
1395.5	0.00532
1405.9	0.00571
1416.8	0.00608
1427.1	0.00637
1437.8	0.00657
1448.8	0.00656
1460.2	0.00616
1470.9	0.00538
1481.7	0.00448
1492.4	0.00386
1502.8	0.00363
1513	0.00369
1524.1	0.00395
1534.5	0.00431
1545.7	0.00474
1556.9	0.00518
1566.9	0.00557
1577.4	0.00596
1587.5	0.00631
1598	0.00663
1608.4	0.00688
1618.5	0.00697
1629.2	0.00675
1640.1	0.00597
1650.8	0.00486
1661.3	0.00395
1671.9	0.00351
1682	0.00347
1692.1	0.00368
1702.6	0.00403
1714.6	0.0045
1725.2	0.00493
1735.6	0.00534
1746.2	0.00572
1756.5	0.00604
1766.7	0.00628
1776.9	0.0064
1788.1	0.00627
1799.2	0.00578
1810	0.00501
1820.2	0.00431
1830.4	0.00386
1840.6	0.00372
1850.8	0.00382
1861.8	0.00409
1873.8	0.0045
1884.3	0.00489
1895.1	0.00531
1905.5	0.0057
1916.1	0.00609
1926.3	0.00645
1936.7	0.00678
1946.9	0.00706
1957.2	0.00723
1967.5	0.00712
1977.8	0.00651
1987.9	0.0054
1998.4	0.00421
2008.7	0.00353
2018.7	0.00335
2029.5	0.00349
2040.4	0.00384
2051.7	0.00428
2062.8	0.00474
2074.6	0.00519
2085.9	0.00558
2097.1	0.00588
2107.2	0.00605
2118.6	0.00605
2129	0.00581
2139.2	0.00533
2149.3	0.00474
2160	0.00421
2170.1	0.00394
2180.6	0.0039
2191.1	0.00404
2201.2	0.00429
2213.7	0.00469
2225.8	0.00512
2236.4	0.00549
2246.5	0.00584
2256.6	0.00617
2267	0.00648
2277.5	0.00671
2288.5	0.0068
2299	0.00657
2309.8	0.00587
2320.5	0.00487
2330.9	0.00403
2341.5	0.0036
2351.6	0.00355
2362.2	0.00374
2373.3	0.00411
2384.2	0.00453
2394.9	0.00496
2406.8	0.00543
2417.3	0.00583
2428.2	0.0062
2438.5	0.00651
2449.1	0.00673
2459.5	0.00678
2470.6	0.00645
2480.9	0.0057
2491.3	0.00471
2501.5	0.00394
2512.1	0.00357
2522.2	0.00356
2533	0.00379
2543.3	0.00413
2554.4	0.00456
2565.4	0.005
2577.1	0.00546
2587.5	0.00584
2597.7	0.00617
2608.5	0.00647
2618.9	0.00664
2630	0.00658
2641.1	0.00612
2651.2	0.00532
2661.7	0.00443
2672.2	0.00382
2682.4	0.0036
2692.4	0.00367
2703.4	0.00394
2713.7	0.00429
2724.6	0.00472
2735.8	0.00516
2746	0.00556
2756.6	0.00595
2766.9	0.0063
2777.5	0.00662
2788.3	0.00685
2799.3	0.00688
2810	0.00652
2820.6	0.00566
2831.2	0.00459
2841.8	0.00381
2851.9	0.00351
2862.6	0.00354
2873.6	0.00381
2884.3	0.0042
2896.6	0.00469
2907.9	0.00514
2918.5	0.00555
2929.8	0.00593
2939.9	0.00623
2950.2	0.00644
2961.4	0.00649
2971.7	0.00624
2982.6	0.00559
2993.3	0.00474
3003.7	0.00407
3014.4	0.00372
3024.6	0.00369
3035.2	0.00388
3046	0.00421
3058	0.00465
3069.3	0.00509
3080.2	0.00552
3091.2	0.00593
3101.3	0.00629
3111.6	0.00663
3121.6	0.00692
3132.1	0.00712
3142.3	0.0071
3153	0.00661
3163.8	0.00554
3174.1	0.00439
3184.3	0.00365
3194.7	0.00339
3205.5	0.00349
3216.3	0.0038
3227	0.00421
3237.2	0.00463
3248.6	0.00509
3260.5	0.00552
3271.7	0.00586
3282.4	0.00609
3293.4	0.00618
3304	0.00603
3314.7	0.00558
3325.2	0.00494
3336	0.00432
3346.9	0.00393
3357.9	0.00384
3369.1	0.00398
3380.3	0.00426
3392.5	0.00467
3404.3	0.0051
3414.7	0.00548
3425.9	0.00588
3436.6	0.00624
3447.3	0.00658
3457.7	0.00685
3468.2	0.007
3479	0.00686
3489.3	0.00627
3499.4	0.00526
3510.2	0.00419
3520.8	0.00359
3531.4	0.00345
3541.8	0.0036
3552.7	0.00394
3563.5	0.00436
3575.6	0.00486
3586.4	0.00529
3597.4	0.00569
3607.9	0.00602
3618	0.00627
3628	0.0064
3638.6	0.00633
3649.9	0.0059
3659.9	0.00521
3670.3	0.00445
3680.6	0.00393
3690.7	0.00372
3701.6	0.00378
3712.1	0.00402
3723.1	0.00438
3735.1	0.00483
3746.2	0.00526
3757.2	0.00567
3767.9	0.00607
3778.3	0.00643
3788.7	0.00677
3799.1	0.00705
3809.4	0.00721
3820	0.00708
3830.4	0.00643
3840.4	0.00531
3851	0.00415
3861.3	0.00351
3871.5	0.00336
3881.7	0.00351
3892.9	0.00386
3904.5	0.00432
3916.3	0.00481
3927.9	0.00525
3938.5	0.00561
3949.4	0.0059
3960.7	0.00608
3972.1	0.00606
3982.2	0.0058
3993.4	0.00523
4004.2	0.00459
4014.6	0.00412
4024.6	0.0039
4035.1	0.0039
4046.1	0.00409
4057	0.00439
4068.7	0.00478
4080.8	0.00521
4091.6	0.0056
4102.1	0.00596
4112.5	0.0063
4123.3	0.0066
4133.4	0.00681
4143.5	0.00684
4154.2	0.00653
4164.3	0.00579
4174.6	0.00478
4184.7	0.00397
4195.1	0.00356
4205.8	0.00353
4216.5	0.00376
4228	0.00415
4239.5	0.0046
4250.5	0.00505
4261.7	0.00549
4271.9	0.00586
4282.9	0.00622
4293.4	0.0065
4303.8	0.00666
4315	0.00658
4326	0.00608
4336.8	0.00519
4347.1	0.00432
4357.4	0.00377
4367.6	0.00359
4377.8	0.00368
4387.8	0.00394
4398.2	0.00431
4409.3	0.00474
4420.5	0.00518
4430.5	0.00557
4441	0.00596
4451.3	0.0063
4462	0.00661
4472.3	0.00681
4482.6	0.00682
4493.7	0.00644
4504.3	0.00557
4515.1	0.00452
4525.8	0.00379
4536.1	0.00352
4546.3	0.00357
4556.5	0.00382
4567.2	0.0042
4579.5	0.00469
4590.8	0.00514
4601.3	0.00555
4612.4	0.00594
4623.3	0.00626
4634.2	0.0065
4644.8	0.00657
4655.6	0.00633
4666.3	0.0057
4676.8	0.00483
4687.1	0.0041
4697.6	0.0037
4708.3	0.00365
4718.5	0.00382
4728.8	0.00413
4739.7	0.00453
4750.5	0.00496
4760.6	0.00535
4771.8	0.00578
4781.9	0.00614
4792.1	0.00648
4802.7	0.00679
4812.9	0.007
4823.3	0.007
4833.5	0.00661
4844.2	0.00566
4854.3	0.00457
4864.4	0.00379
4874.6	0.00345
4884.8	0.00348
4895.1	0.00373
4906.4	0.00413
4917.8	0.00459
4928.9	0.00504
4940.8	0.00549
4951.7	0.00585
4962.8	0.00614
4973.5	0.0063
4984.6	0.00625
4995	0.00591
5005.9	0.00523
5016.7	0.00449
5027.4	0.00397
5037.8	0.00377
5047.9	0.00382
5058.5	0.00404
5069.5	0.00439
5081.5	0.00482
5092.8	0.00525
5104	0.00567
5114.9	0.00607
5125.3	0.00643
5135.8	0.00677
5146.1	0.00704
5156.4	0.0072
5167	0.00708
5177.4	0.00644
5187.5	0.00532
5198.1	0.00416
5208.5	0.00352
5218.7	0.00336
5229	0.00351
5239	0.00383
5250.2	0.00426
5261	0.00471
5272.8	0.00517
5284.1	0.00556
5295.2	0.00588
5306.4	0.00608
5317.2	0.0061
5329.2	0.00582
5340.4	0.00525
5351.2	0.00461
5361.6	0.00413
5371.6	0.0039
5382.1	0.00389
5392.9	0.00407
5403.7	0.00437
5414.9	0.00474
5427.1	0.00518
5438.2	0.00558
5448.9	0.00595
5459.3	0.00629
5470.1	0.0066
5480.2	0.00681
5491	0.00686
5501.6	0.00656
5511.7	0.00582
5521.9	0.00481
5532	0.00398
5542.3	0.00356
5552.9	0.00352
5563.4	0.00373
5574.5	0.0041
5585.4	0.00453
5596.2	0.00497
5608.1	0.00544
5618.7	0.00583
5628.9	0.00617
5639.7	0.00646
5650.3	0.00662
5660.3	0.00658
5671.5	0.00613
5681.8	0.00534
5692.4	0.00445
5703	0.00383
5713.2	0.00361
5723.3	0.00367
5734.3	0.00394
5744.6	0.0043
5755.6	0.00472
5766.8	0.00517
5777	0.00556
5787.6	0.00595
5797.8	0.0063
5808.4	0.00662
5819.2	0.00685
5830	0.00689
5840.5	0.00656
5851.2	0.00572
5861.9	0.00464
5872.5	0.00384
5882.5	0.00351
5893.1	0.00353
5903.9	0.00378
5914.2	0.00414
5925.7	0.0046
5936.8	0.00505
5948.3	0.00549
5958.7	0.00586
5969.2	0.00617
5979.7	0.0064
5990.7	0.00648
6002.2	0.00625
6013.3	0.0056
6024.1	0.00476
6034.6	0.00408
6045.3	0.00372
6055.5	0.00369
6066.2	0.00388
6077	0.00421
6089.1	0.00466
6100.5	0.0051
6111.3	0.00552
6122.2	0.00593
6132.4	0.00629
6142.6	0.00663
6153.3	0.00694
6163.7	0.00714
6173.8	0.00711
6184.5	0.00662
6195.2	0.00554
6205.4	0.00439
6215.5	0.00365
6225.8	0.00338
6236.6	0.00347
6247.2	0.00378
6257.7	0.00418
6269.9	0.00468
6281.5	0.00514
6292.9	0.00555
6304	0.00587
6314.8	0.00609
6326.3	0.00615
6337.6	0.00593
6347.8	0.00546
6357.9	0.00483
6368.6	0.00425
6379.5	0.00391
6389.6	0.00385
6399.7	0.00398
6410.9	0.00426
6422.9	0.00465
6434.7	0.00507
6445.8	0.00548
6456.8	0.00587
6467.6	0.00623
6478.3	0.00657
6489	0.00683
6499.8	0.00696
6510	0.0068
6520.4	0.00617
6530.6	0.00515
6540.7	0.00419
6550.8	0.00362
6561.5	0.00346
6572	0.00361
6583	0.00395
6594	0.00438
6606.3	0.00488
6616.9	0.0053
6627.6	0.0057
6637.8	0.00603
6648.7	0.00631
6659.4	0.00647
6670.8	0.00638
6681.6	0.00594
6692.4	0.00516
6702.4	0.0044
6712.5	0.00388
6723.3	0.00368
6734.1	0.00377
6744.8	0.00404
6756.2	0.00442
6768.8	0.00491
6779.4	0.00532
6789.6	0.00571
6800.1	0.00609
6810.4	0.00645
6820.9	0.00678
6831.3	0.00704
6842.1	0.00716
6852.9	0.00691
6863	0.00615
6873.7	0.00492
6884.3	0.00392
6894.7	0.00344
6904.8	0.0034
6915	0.00361
6926.2	0.004
6937.9	0.00447
6948.3	0.00489
6959.4	0.00532
6970.9	0.0057
6981	0.00597
6991.6	0.00614
7002.2	0.00614
7013.7	0.00584
7024.5	0.00527
7035	0.00461
7045.3	0.00411
7056.1	0.00386
7066.5	0.00387
7077.3	0.00407
7088.1	0.00437
7099.6	0.00477
7111.6	0.0052
7122.3	0.00559
7132.7	0.00596
7142.9	0.0063
7153.4	0.00662
7163.9	0.00687
7174.8	0.00698
7185.3	0.00675
7195.4	0.00608
7206.2	0.00496
7216.8	0.00401
7227.4	0.00353
7237.5	0.00347
7248.4	0.00368
7259	0.00403
7271.1	0.00451
7281.8	0.00495
7292	0.00535
7302.3	0.00572
7312.5	0.00605
7323.4	0.00632
7334.4	0.00645
7345.2	0.00632
7356.1	0.00583
7366.7	0.00506
7376.7	0.00433
7386.8	0.00386
7396.9	0.0037
7407.8	0.00379
7418.7	0.00407
7430.5	0.00447
7440.8	0.00486
7451.6	0.00528
7462.2	0.00569
7472.9	0.00608
7483.2	0.00644
7493.6	0.00677
7504	0.00705
7514.5	0.00719
7524.6	0.00703
7535	0.00636
7545	0.00523
7555.7	0.0041
7566.1	0.0035
7576.5	0.00337
7587	0.00355
7597.4	0.00389
7607.6	0.00429
7618.8	0.00475
7630.4	0.0052
7641.4	0.00558
7652.3	0.00589
7663.3	0.00609
7673.8	0.00612
7685.5	0.00586
7695.5	0.00538
7705.6	0.00477
7716.2	0.00422
7727.1	0.00391
7737.4	0.00387
7747.8	0.00402
7759.5	0.00432
7770	0.00467
7781.9	0.00509
7792.5	0.00548
7802.6	0.00583
7812.6	0.00617
7822.9	0.00649
7833	0.00675
7843	0.0069
7853.9	0.00681
7864.7	0.00625
7875.4	0.00525
7885.7	0.00426
7896.1	0.00366
7906.3	0.00348
7916.7	0.00361
7927.5	0.00392
7937.9	0.00431
7949.4	0.00478
7960.4	0.00522
7971.7	0.00565
7982	0.006
7992.7	0.00631
8003.6	0.00652
8014.6	0.00654
8024.6	0.00626
8034.9	0.0056
8045.3	0.00474
8055.4	0.00405
8065.9	0.00369
8076.8	0.00366
8087.3	0.00386
8098	0.0042
8110	0.00465
8121.3	0.00509
8132.2	0.00552
8143.1	0.00592
8153.3	0.00628
8163.8	0.00662
8174.1	0.00689
8184.5	0.00703
8195.4	0.00687
8205.4	0.00625
8216.2	0.00514
8226.7	0.00411
8237.2	0.00355
8247.6	0.00344
8258	0.00361
8269	0.00396
8279.9	0.00439
8292.4	0.00489
8303.2	0.00531
8314.1	0.0057
8324.8	0.00602
8335.3	0.00625
8346.4	0.00632
8357.6	0.00612
8368.5	0.00557
8379.1	0.00483
8389.2	0.0042
8399.5	0.00384
8410.1	0.00376
8420.9	0.00392
8431.8	0.00421
8443.5	0.00462
8454.9	0.00505
8466.6	0.00549
8476.6	0.00586
8487.2	0.00624
8497.6	0.00659
8508.3	0.00692
8518.4	0.00715
8528.5	0.00721
8539.5	0.00686
8549.8	0.00595
8560	0.00472
8570.2	0.0038
8580.3	0.0034
8591	0.0034
8601.5	0.00365
8611.9	0.00403
8622	0.00444
8632.2	0.00486
8643.6	0.00529
8653.9	0.00563
8664.7	0.00591
8676	0.00609
8687.5	0.00605
8697.7	0.00576
8708.6	0.0052
8719.3	0.00457
8729.7	0.00411
8739.7	0.00389
8750.3	0.00391
8761.3	0.0041
8772.5	0.00442
8784.7	0.00483
8796.7	0.00526
8807	0.00562
8817.3	0.00598
8827.6	0.00631
8838.3	0.00661
8848.5	0.00681
8858.7	0.00683
8869.5	0.00649
8880.5	0.00564
8890.6	0.00465
8900.6	0.0039
8911	0.00354
8921	0.00354
8931.8	0.00378
8942.1	0.00413
8953.3	0.00457
8964.3	0.00502
8975.7	0.00547
8986	0.00585
8996.1	0.00618
9006.8	0.00647
9017.1	0.00665
9027.7	0.00662
9038.7	0.00621
9048.9	0.00542
9059.5	0.0045
9069.9	0.00385
9080	0.0036
9090.9	0.00365
9101.7	0.00392
9111.7	0.00426
9122.3	0.00467
9133.5	0.00512
9144.1	0.00553
9155	0.00593
9165.4	0.00628
9176.2	0.0066
9186.5	0.0068
9196.8	0.00682
9207.8	0.00645
9218.6	0.00559
9229.5	0.00453
9240.2	0.0038
9250.5	0.00352
9260.7	0.00357
9270.9	0.00382
9281.6	0.0042
9293.9	0.00469
9305.1	0.00514
9315.7	0.00554
9326.8	0.00593
9337.7	0.00626
9348.6	0.00651
9358.9	0.00658
9369.5	0.00638
9380.3	0.00576
9390.9	0.00488
9401.2	0.00413
9411.6	0.00371
9422.3	0.00364
9432.4	0.0038
9443.8	0.00414
9454.8	0.00454
9465.6	0.00497
9475.6	0.00536
9486.7	0.00579
9496.8	0.00615
9507	0.00649
9517.6	0.00679
9527.9	0.00699
9538.7	0.00696
9549	0.00651
9559.6	0.00554
9569.7	0.00447
9579.7	0.00374
9590.1	0.00345
9600.5	0.00351
9611.2	0.00379
9621.8	0.00418
9633.9	0.00467
9645.3	0.00513
9656.3	0.00554
9666.8	0.00588
9677.7	0.00617
9688.1	0.00633
9698.9	0.00629
9709.1	0.00596
9720.1	0.00529
9730.9	0.00452
9741.5	0.00398
9751.8	0.00376
9762.8	0.00381
9773.5	0.00404
9784.5	0.00439
9796.5	0.00483
9807.8	0.00526
9818.8	0.00567
9829.6	0.00607
9840	0.00643
9850.5	0.00677
9860.7	0.00705
9871	0.00722
9881.3	0.00712
9891.7	0.00652
9901.8	0.00541
9912.4	0.00422
9922.7	0.00354
9932.8	0.00335
9943.6	0.0035
9954.7	0.00384
9966.1	0.00429
9977.4	0.00476
9989.1	0.00521
10000	0.00559
10011	0.00589
10023	0.00607
10034	0.00605
10045	0.00577
10056	0.00521
10066	0.00458
10077	0.00411
10087	0.0039
10098	0.00391
10109	0.00411
10120	0.00442
10132	0.00483
10144	0.00526
10154	0.00563
10165	0.00598
10175	0.00631
10186	0.0066
10196	0.0068
10207	0.00679
10218	0.00638
10229	0.0055
10239	0.00453
10249	0.00384
10259	0.00354
10270	0.00358
10280	0.00382
10291	0.00419
10303	0.00468
10314	0.00513
10324	0.00554
10335	0.00594
10346	0.00628
10356	0.00655
10366	0.00672
10377	0.00666
10387	0.00622
10398	0.00534
10408	0.00442
10418	0.0038
10429	0.00356
10440	0.00365
10451	0.00394
10462	0.00432
10473	0.00477
10484	0.00521
10495	0.00565
10505	0.00601
10516	0.00633
10526	0.00659
10536	0.00674
10547	0.00665
10557	0.00616
10568	0.00527
10578	0.00437
10588	0.00377
10599	0.00355
10609	0.00366
10620	0.00396
10631	0.00436
10643	0.00483
10654	0.00526
10665	0.00567
10676	0.00606
10686	0.00637
10696	0.00662
10706	0.00674
10716	0.0066
10727	0.00606
10737	0.00516
10747	0.00429
10757	0.00374
10768	0.00356
10778	0.00367
10789	0.00398
10800	0.00438
10813	0.00487
10823	0.00529
10834	0.00569
10845	0.00608
10856	0.00641
10866	0.00666
10877	0.00675
10887	0.00654
10897	0.00594
10908	0.00494
10919	0.00409
10930	0.00363
10940	0.00356
10950	0.00374
10961	0.00408
10972	0.00447
10982	0.00489
10992	0.0053
11003	0.0057
11014	0.00608
11025	0.00641
11035	0.00664
11045	0.00672
11056	0.00649
11066	0.00587
11076	0.00497
11087	0.00411
11097	0.00366
11107	0.00357
11118	0.00372
11128	0.00404
11140	0.00449
11151	0.00491
11161	0.00532
11171	0.00571
11182	0.00609
11193	0.00642
11204	0.00668
11214	0.00677
11224	0.00658
11234	0.006
11244	0.00509
11255	0.00417
11266	0.00366
11276	0.00355
11287	0.00371
11297	0.00403
11309	0.00448
11319	0.00489
11330	0.00531
11340	0.0057
11351	0.00608
11361	0.00638
11372	0.00661
11382	0.00669
11394	0.00644
11404	0.0058
11414	0.0049
11425	0.00407
11435	0.00366
11445	0.00358
11456	0.00376
11467	0.00411
11478	0.00452
11488	0.00494
11498	0.00535
11508	0.00573
11519	0.0061
11530	0.00644
11540	0.0067
11551	0.00682
11562	0.00663
11573	0.00596
11584	0.00496
11594	0.00408
11604	0.00361
11615	0.00353
11625	0.00371
11636	0.00405
11648	0.00451
11659	0.00494
11669	0.00535
11679	0.00573
11690	0.00609
11700	0.00638
11711	0.00658
11722	0.00658
11733	0.00621
11744	0.00543
11755	0.00452
11765	0.00387
11776	0.00363
11786	0.00367
11797	0.00392
11808	0.00432
11820	0.00476
11831	0.0052
11842	0.00564
11852	0.00601
11863	0.00638
11873	0.00668
11884	0.00691
11894	0.00694
11905	0.00661
11915	0.00577
11926	0.00468
11936	0.00385
11947	0.00349
11957	0.0035
11968	0.00375
11979	0.00416
11991	0.00464
12002	0.00509
12013	0.00552
12024	0.00587
12035	0.00617
12046	0.00638
12057	0.00638
12068	0.00605
12079	0.00537
12089	0.00458
12100	0.00399
12110	0.00374
12120	0.00375
12131	0.00395
12142	0.00432
12153	0.00472
12165	0.00516
12175	0.00556
12186	0.00595
12196	0.00631
12206	0.00665
12216	0.00697
12226	0.00718
12237	0.0072
12247	0.00681
12258	0.00578
12268	0.00458
12279	0.00369
12289	0.00336
12299	0.00342
12310	0.00372
12322	0.00416
12334	0.00465
12345	0.00511
12355	0.00546
12366	0.00578
12376	0.006
12387	0.00608
12398	0.00594
12410	0.00549
12420	0.00487
12431	0.00429
12441	0.00397
12452	0.00389
12462	0.00399
12473	0.00424
12484	0.0046
12496	0.005
12506	0.00537
12517	0.00575
12528	0.0061
12538	0.00643
12549	0.00669
12560	0.00681
12571	0.00666
12581	0.0061
12591	0.00519
12601	0.00423
12612	0.00367
12623	0.00353
12633	0.00367
12643	0.00396
12654	0.00437
12666	0.00486
12677	0.00529
12687	0.00569
12698	0.00607
12709	0.00641
12719	0.00667
12730	0.00676
12740	0.00658
12750	0.00599
12760	0.00508
12771	0.00417
12782	0.00366
12793	0.00355
12803	0.00372
12814	0.00404
12826	0.0045
12836	0.00492
12846	0.00533
12857	0.00571
12868	0.00609
12878	0.00639
12888	0.00662
12899	0.00669
12910	0.00643
12921	0.00569
12932	0.00472
12942	0.00397
12952	0.00362
12963	0.0036
12973	0.0038
12983	0.00412
12994	0.00454
13005	0.00497
13017	0.00544
13027	0.00583
13038	0.00621
13048	0.00652
13059	0.00675
13069	0.00682
13079	0.00658
13090	0.00588
13100	0.00488
13111	0.00403
13121	0.00359
13132	0.00353
13142	0.00373
13153	0.00409
13164	0.0045
13175	0.00493
13185	0.00534
13195	0.00572
13206	0.00609
13216	0.00638
13227	0.00658
13238	0.00658
13249	0.00619
13260	0.00542
13271	0.00451
13281	0.00387
13292	0.00363
13302	0.00368
13313	0.00393
13323	0.00427
13334	0.00468
13345	0.00513
13355	0.00554
13366	0.00594
13376	0.0063
13387	0.00662
13397	0.00687
13407	0.00697
13418	0.00676
13428	0.00608
13439	0.00497
13450	0.00401
13460	0.00353
13470	0.00347
13481	0.00367
13492	0.00402
13503	0.00448
13514	0.00491
13524	0.00532
13535	0.00571
13546	0.00603
13556	0.00628
13566	0.0064
13577	0.00628
13588	0.0058
13599	0.00503
13609	0.00432
13619	0.00387
13630	0.00372
13640	0.00381
13651	0.00408
13663	0.00448
13673	0.00486
13684	0.00529
13694	0.00569
13705	0.00608
13715	0.00644
13726	0.00678
13736	0.00706
13746	0.00723
13757	0.00712
13767	0.00651
13777	0.0054
13788	0.00421
13798	0.00353
13808	0.00335
13819	0.00349
13830	0.00383
13841	0.00428
13852	0.00473
13864	0.00519
13875	0.00558
13886	0.00588
13896	0.00605
13908	0.00605
13918	0.00581
13928	0.00533
13939	0.00474
13949	0.00421
13959	0.00394
13970	0.0039
13980	0.00404
13990	0.00429
14003	0.00469
14015	0.00511
14026	0.00549
14036	0.00584
14046	0.00617
14056	0.00648
14067	0.00672
14078	0.0068
14088	0.00657
14099	0.00587
14110	0.00487
14120	0.00403
14131	0.0036
14141	0.00355
14151	0.00374
14163	0.0041
14173	0.00453
14184	0.00496
14196	0.00543
14207	0.00583
14217	0.00617
14227	0.00649
14238	0.00672
14248	0.00678
14259	0.0065
14269	0.00577
14280	0.00478
14290	0.00398
14301	0.00359
14311	0.00356
14321	0.00377
14333	0.00414
14344	0.00459
14355	0.00503
14367	0.00548
14377	0.00585
14387	0.00618
14398	0.00647
14408	0.00664
14419	0.00658
14431	0.00611
14441	0.00532
14451	0.00442
14461	0.00382
14472	0.0036
14482	0.00367
14493	0.00394
14503	0.00429
14514	0.00472
14525	0.00517
14535	0.00556
14546	0.00595
14556	0.0063
14567	0.00662
14577	0.00683
14588	0.00687
14598	0.00655
14609	0.00571
14620	0.00463
14631	0.00384
14641	0.00352
14651	0.00354
14662	0.0038
14673	0.00418
14685	0.00465
14696	0.00511
14707	0.00553
14717	0.00588
14727	0.00619
14738	0.00642
14749	0.00651
14760	0.0063
14771	0.00567
14782	0.00481
14792	0.0041
14803	0.00372
14813	0.00368
14823	0.00385
14834	0.00415
14845	0.00455
14856	0.00498
14866	0.00537
14877	0.00579
14888	0.00619
14899	0.00655
14909	0.00686
14919	0.00708
14930	0.0071
14941	0.00669
14951	0.00574
14962	0.00455
14972	0.00372
14982	0.0034
14993	0.00346
15003	0.00374
15013	0.00411
15024	0.00456
15036	0.00501
15046	0.0054
15057	0.00575
15068	0.00603
15078	0.00618
15089	0.00614
15100	0.00579
15110	0.00522
15121	0.00456
15131	0.00408
15141	0.00384
15152	0.00386
15163	0.00407
15174	0.00438
15185	0.00479
15197	0.00522
15207	0.00561
15218	0.00597
15228	0.00631
15238	0.00664
15249	0.0069
15259	0.00703
15270	0.00686
15280	0.00624
15291	0.00512
15301	0.0041
15312	0.00355
15322	0.00344
15332	0.00361
15344	0.00397
15355	0.00441
15367	0.00493
15378	0.00534
15389	0.00572
15399	0.00603
15409	0.00627
15420	0.00636
15431	0.00621
15442	0.00569
15452	0.00493
15463	0.00427
15473	0.00385
15483	0.00374
15494	0.00386
15504	0.00412
15514	0.00446
15524	0.00484
15535	0.00526
15546	0.00568
15557	0.00607
15567	0.00643
15578	0.00677
15588	0.00705
15598	0.00721
15609	0.0071
15619	0.00646
15629	0.00535
15640	0.00418
15650	0.00352
15660	0.00335
15671	0.0035
15682	0.00384
15693	0.00429
15704	0.00475
15716	0.00521
15727	0.00558
15738	0.00589
15749	0.00608
15761	0.00607
15771	0.00582
15781	0.00533
15792	0.00467
15803	0.00417
15813	0.00392
15823	0.00389
15834	0.00405
15844	0.00432
15854	0.00466
15866	0.00508
15877	0.00547
15887	0.00583
15898	0.00616
15908	0.00648
15918	0.00673
15929	0.00685
15940	0.00669
15950	0.00604
15961	0.00503
15972	0.00412
15982	0.00362
15993	0.00352
16003	0.00368
16013	0.00401
16025	0.00445
16035	0.00486
16045	0.00528
16056	0.00569
16067	0.00607
16077	0.00637
16087	0.0066
16098	0.00668
16108	0.00648
16118	0.00587
16129	0.00497
16139	0.00412
16150	0.00368
16160	0.00359
16171	0.00375
16181	0.00408
16192	0.00447
16202	0.00487
16213	0.00529
16223	0.00569
16234	0.00608
16245	0.00642
16255	0.00669
16266	0.00682
16277	0.00668
16288	0.00604
16298	0.00504
16309	0.00413
16319	0.00363
16330	0.00352
16340	0.00368
16350	0.004
16362	0.00444
16375	0.00495
16385	0.00535
16395	0.00573
16406	0.00609
16416	0.00638
16427	0.00658
16437	0.00658
16449	0.00621
16459	0.00543
16470	0.00452
16481	0.00387
16491	0.00363
16501	0.00367
16512	0.00392
16524	0.00432
16535	0.00476
16546	0.0052
16558	0.00564
16569	0.00605
16580	0.0064
16590	0.0067
16600	0.00692
16611	0.00693
16621	0.00655
16632	0.0057
16642	0.00461
16652	0.00382
16663	0.00348
16673	0.00351
16684	0.00378
16695	0.00415
16706	0.00462
16717	0.00507
16729	0.0055
16739	0.00586
16750	0.00617
16761	0.00637
16772	0.00638
16783	0.00607
16794	0.00539
16805	0.00459
16815	0.004
16825	0.00374
16836	0.00375
16846	0.00395
16858	0.00431
16868	0.0047
16880	0.00514
16890	0.00555
16901	0.00595
16911	0.00631
16921	0.00665
16932	0.00696
16942	0.00718
16952	0.00721
16962	0.00684
16972	0.00591
16983	0.00469
16993	0.00379
17003	0.00338
17014	0.0034
17025	0.00368
17036	0.00408
17046	0.00451
17057	0.00495
17068	0.00536
17080	0.00572
17090	0.00596
17100	0.00608
17111	0.00601
17121	0.00568
17132	0.00512
17142	0.00452
17153	0.00408
17163	0.0039
17174	0.00393
17185	0.00415
17197	0.0045
17207	0.00485
17218	0.00522
17229	0.00563
17240	0.00598
17250	0.00631
17261	0.0066
17271	0.00679
17282	0.00676
17292	0.00638
17303	0.0055
17313	0.00454
17323	0.00384
17334	0.00354
17344	0.00358
17354	0.00383
17365	0.00421
17378	0.00471
17389	0.00515
17399	0.00555
17410	0.00594
17420	0.00629
17430	0.00657
17441	0.00675
17451	0.00671
17462	0.00629
17473	0.00541
17483	0.00447
17493	0.00382
17503	0.00355
17514	0.00362
17525	0.00388
17536	0.00429
17547	0.00472
17558	0.00517
17568	0.00556
17579	0.00595
17590	0.00629
17600	0.00655
17610	0.00669
17621	0.00659
17631	0.00609
17642	0.00519
17652	0.00432
17663	0.00376
17673	0.00358
17683	0.00367
17694	0.00396
17705	0.00435
17716	0.00481
17727	0.00524
17738	0.00566
17749	0.00606
17760	0.00641
17771	0.00668
17781	0.00683
17792	0.00672
17802	0.00622
17812	0.00532
17822	0.00432
17833	0.0037
17843	0.00351
17854	0.00363
17865	0.00394
17876	0.00434
17887	0.00481
17898	0.00524
17909	0.00566
17920	0.00601
17930	0.00632
17941	0.00654
17951	0.00659
17963	0.0063
17973	0.00564
17983	0.00477
17993	0.00406
18003	0.00368
18014	0.00364
18024	0.00383
18035	0.00415
18046	0.00456
18057	0.00499
18069	0.00545
18079	0.00584
18090	0.00622
18100	0.00657
18111	0.00684
18122	0.00699
18133	0.00684
18143	0.00622
18153	0.0052
18164	0.00416
18174	0.00358
18185	0.00345
18195	0.00362
18206	0.00397
18217	0.0044
18230	0.00491
18241	0.00533
18251	0.00571
18262	0.00603
18272	0.00627
18283	0.00637
18293	0.00625
18304	0.00575
18315	0.00499
18325	0.0043
18336	0.00387
18346	0.00373
18356	0.00384
18367	0.00412
18378	0.00447
18388	0.00485
18399	0.00527
18410	0.00568
18421	0.00608
18431	0.00644
18441	0.00678
18452	0.00706
18462	0.00723
18472	0.00714
18482	0.00655
18492	0.00544
18503	0.00424
18513	0.00354
18524	0.00335
18534	0.00348
18545	0.00382
18556	0.00425
18567	0.00469
18578	0.00515
18590	0.00555
18601	0.00587
18612	0.00604
18623	0.00606
18633	0.00583
18644	0.00536
18654	0.00476
18665	0.00423
18675	0.00395
18685	0.00389
18696	0.00403
18707	0.00432
18718	0.00466
18730	0.00508
18741	0.00547
18751	0.00582
18761	0.00616
18772	0.00647
18782	0.00671
18793	0.0068
18803	0.00659
18814	0.0059
18825	0.00489
18836	0.00404
18846	0.0036
18856	0.00354
18867	0.00373
18878	0.00409
18888	0.0045
18899	0.00492
18909	0.00533
18919	0.00572
18930	0.00609
18940	0.00643
18951	0.00668
18962	0.00679
18972	0.00659
18983	0.00591
18994	0.00491
19004	0.00406
19015	0.00361
19026	0.00355
19036	0.00375
19048	0.00411
19058	0.00453
19069	0.00496
19079	0.00536
19089	0.00573
19100	0.0061
19110	0.00639
19121	0.0066
19131	0.00664
19141	0.00636
19152	0.00571
19162	0.00482
19173	0.00403
19183	0.00366
19193	0.00361
19203	0.0038
19213	0.00411
19224	0.0045
19235	0.00492
19245	0.00533
19255	0.00572
19266	0.0061
19276	0.00644
19286	0.00672
19296	0.00689
19307	0.00683
19318	0.00631
19329	0.00532
19339	0.00432
19350	0.00369
19360	0.00349
19370	0.00359
19380	0.00388
19392	0.0043
19403	0.00476
19414	0.00521
19425	0.00559
19435	0.00596
19445	0.00624
19456	0.00645
19466	0.00649
19476	0.00625
19487	0.00561
19498	0.00476
19508	0.00407
19519	0.00372
19529	0.00369
19540	0.00388
19551	0.0042
19563	0.00464
19574	0.00508
19585	0.00551
19596	0.00592
19606	0.00629
19616	0.00663
19626	0.00692
19637	0.00712
19647	0.00711
19658	0.00664
19668	0.00567
19678	0.00449
19688	0.00369
19699	0.00339
19709	0.00346
19720	0.00375
19730	0.00412
19741	0.00458
19752	0.00503
19763	0.00541
19773	0.00575
19784	0.00603
19795	0.00617
19806	0.00608
19818	0.00568
19829	0.00503
19840	0.00438
19851	0.00396
19862	0.00384
19873	0.00395
19883	0.00421
19895	0.00457
19906	0.00497
19916	0.00535
19927	0.00574
19937	0.0061
19948	0.00644
19958	0.00673
19968	0.00694
19979	0.00696
19989	0.00662
19999	0.00577
20010	0.00467
20020	0.00385
20030	0.00348
20041	0.00349
20051	0.00374
20063	0.00414
20074	0.00461
20085	0.00506
20097	0.0055
20107	0.00586
20118	0.00617
20129	0.00638
20139	0.00641
20150	0.00614
20161	0.00548
20172	0.00466
20183	0.00404
20193	0.00374
20203	0.00373
20214	0.00394
20226	0.00429
20236	0.00468
20248	0.00512
20258	0.00553
20269	0.00594
20279	0.0063
20290	0.00664
20300	0.00695
20310	0.00716
20321	0.00716
20331	0.00672
20342	0.00567
20352	0.00449
20362	0.00369
20372	0.00338
20383	0.00343
20394	0.00373
20405	0.00416
20417	0.00465
20429	0.00511
20441	0.00553
20452	0.00586
20463	0.00607
20474	0.00611
20485	0.00587
20496	0.00539
20506	0.00478
20516	0.00423
20526	0.00393
20537	0.00387
20547	0.004
20558	0.00428
20571	0.00467
20583	0.0051
20593	0.00548
20603	0.00583
20613	0.00617
20624	0.00649
20634	0.00674
20644	0.00687
20654	0.00676
20665	0.00617
20676	0.00517
20686	0.00421
20697	0.00365
20707	0.0035
20718	0.00365
20728	0.00395
20739	0.00436
20751	0.00485
20761	0.00527
20772	0.00568
20782	0.00603
20793	0.00633
20803	0.00656
20813	0.00662
20824	0.00639
20834	0.00575
20845	0.00487
20855	0.00412
20865	0.00369
20876	0.00362
20887	0.0038
20897	0.0041
20907	0.00449
20918	0.00491
20928	0.00532
20938	0.00571
20949	0.00609
20959	0.00644
20970	0.00672
20980	0.00691
20991	0.00686
21002	0.00637
21012	0.00538
21023	0.00436
21033	0.0037
21044	0.00347
21054	0.00358
21064	0.00386
21076	0.00429
21087	0.00474
21098	0.00519
21108	0.00557
21120	0.00595
21130	0.00623
21140	0.00643
21151	0.00644
21162	0.00613
21172	0.00546
21183	0.00464
21193	0.00401
21204	0.00371
21215	0.00372
21226	0.00395
21236	0.00427
21246	0.00466
21258	0.00509
21269	0.00552
21280	0.00593
21290	0.00629
21300	0.00663
21311	0.00695
21321	0.00715
21332	0.00715
21342	0.00668
21353	0.00562
21363	0.00445
21373	0.00367
21383	0.00338
21393	0.00344
21404	0.00372
21415	0.00415
21427	0.00462
21438	0.00508
21448	0.00545
21459	0.00577
21470	0.00603
21482	0.00613
21493	0.00598
21504	0.00553
21514	0.0049
21525	0.0043
21535	0.00396
21545	0.00386
21556	0.00398
21567	0.00424
21579	0.0046
21590	0.00501
21601	0.00537
21611	0.00575
21622	0.00611
21632	0.00644
21642	0.00671
21652	0.00688
21663	0.00683
21674	0.00634
21684	0.00545
21695	0.00441
21705	0.00373
21715	0.00349
21726	0.00357
21736	0.00385
21747	0.00425
21758	0.00468
21769	0.00513
21779	0.00554
21790	0.00593
21801	0.00626
21812	0.00651
21822	0.00658
21833	0.00638
21844	0.00576
21854	0.00489
21865	0.00413
21875	0.00371
21886	0.00364
21896	0.00379
21907	0.00413
21918	0.00454
21929	0.00496
21939	0.00536
21950	0.00578
21960	0.00614
21971	0.00648
21981	0.00678
21992	0.00697
22003	0.00692
22013	0.00643
22024	0.00544
22034	0.0044
22044	0.00371
22054	0.00345
22065	0.00354
22075	0.00381
22086	0.00421
22096	0.00462
22107	0.00507
22118	0.0055
22129	0.00586
22140	0.00616
22150	0.00634
22160	0.00635
22172	0.00604
22183	0.00537
22194	0.00458
22204	0.00401
22214	0.00376
22225	0.00378
22236	0.00399
22246	0.0043
22257	0.00469
22268	0.00513
22279	0.00554
22290	0.00594
22300	0.0063
22310	0.00664
22320	0.00696
22331	0.00718
22341	0.00722
22351	0.00688
22361	0.00597
22371	0.00475
22381	0.00382
22392	0.00339
22402	0.00339
22413	0.00365
22423	0.00403
22433	0.00445
22444	0.00486
22455	0.0053
22466	0.00564
22476	0.00591
22487	0.00606
22498	0.00603
22509	0.00573
22520	0.00517
22531	0.00455
22541	0.0041
22551	0.0039
22562	0.00392
22573	0.00413
22585	0.00446
22597	0.0049
22608	0.00527
22619	0.00565
22629	0.006
22639	0.00632
22650	0.00661
22661	0.00679
22672	0.00674
22682	0.00631
22693	0.00542
22703	0.00447
22713	0.00381
22723	0.00354
22734	0.0036
22744	0.00387
22756	0.00428
22767	0.00472
22778	0.00516
22788	0.00556
22799	0.00595
22809	0.00629
22819	0.00657
22830	0.00676
22841	0.00672
22851	0.00629
22862	0.00541
22872	0.00447
22882	0.00381
22892	0.00355
22903	0.00361
22913	0.00387
22925	0.00427
22935	0.00469
22947	0.00514
22957	0.00554
22968	0.00594
22979	0.00627
22989	0.00653
23000	0.00666
23010	0.00653
23021	0.00597
23032	0.00507
23042	0.00424
23052	0.00374
23063	0.00359
23073	0.00372
23084	0.00401
23095	0.00441
23107	0.00491
23118	0.00532
23128	0.00571
23139	0.00609
23149	0.00643
23159	0.00671
23170	0.00687
23181	0.00679
23191	0.00624
23202	0.00524
23213	0.00426
23223	0.00367
23233	0.00349
23244	0.00361
23254	0.00393
23265	0.00432
23276	0.00478
23287	0.00522
23299	0.00565
23309	0.006
23320	0.0063
23330	0.00649
23341	0.00649
23351	0.0062
23362	0.00553
23372	0.00469
23382	0.00403
23393	0.0037
23403	0.00368
23414	0.00389
23425	0.00423
23437	0.00469
23448	0.00513
23459	0.00554
23470	0.00594
23480	0.0063
23490	0.00664
23500	0.00692
23511	0.0071
23521	0.00703
23532	0.00644
23543	0.00533
23553	0.00424
23563	0.00359
23574	0.00339
23584	0.00353
23595	0.00384
23606	0.00428
23617	0.00473
23628	0.00518
23639	0.00557
23650	0.00589
23660	0.00612
23671	0.00621
23681	0.00609
23692	0.00566
23702	0.005
23713	0.00435
23724	0.00394
23735	0.00382
23746	0.00393
23756	0.0042
23767	0.00456
23779	0.00496
23790	0.00537
23800	0.00574
23810	0.0061
23820	0.00645
23831	0.00677
23841	0.00699
23852	0.00705
23863	0.00672
23873	0.0059
23883	0.00478
23893	0.0039
23903	0.00347
23914	0.00345
23925	0.00369
23936	0.00407
23946	0.0045
23957	0.00493
23967	0.00534
23978	0.00572
23989	0.00603
23999	0.00625
24011	0.00631
24022	0.00605
24033	0.00548
24043	0.00475
24053	0.00416
24064	0.00383
24074	0.00377
24085	0.00395
24097	0.00428
24107	0.00463
24118	0.00506
24130	0.0055
24140	0.00587
24150	0.00624
24161	0.00659
24171	0.0069
24181	0.00713
24191	0.00718
24201	0.00688
24212	0.00598
24222	0.00476
24233	0.00382
24243	0.00341
24253	0.0034
24263	0.00363
24274	0.00399
24285	0.00447
24296	0.00489
24307	0.00532
24318	0.0057
24329	0.00596
24340	0.00612
24351	0.00607
24363	0.0057
24373	0.00513
24383	0.00451
24394	0.00407
24405	0.00387
24415	0.00391
24427	0.00415
24437	0.00444
24449	0.00488
24460	0.00525
24471	0.00565
24481	0.006
24491	0.00633
24501	0.00663
24512	0.00686
24523	0.00689
24533	0.00656
24544	0.00572
24555	0.00463
24566	0.00383
24576	0.00351
24586	0.00354
24597	0.0038
24608	0.00418
24620	0.00466
24631	0.00512
24642	0.00553
24653	0.00592
24664	0.00625
24675	0.00649
24686	0.00656
24697	0.00631
24707	0.00566
24718	0.0048
24728	0.00408
24739	0.0037
24749	0.00366
24760	0.00384
24770	0.00416
24782	0.00458
24793	0.00502
24804	0.00547
24814	0.00585
24825	0.00623
24836	0.00658
24846	0.00686
24856	0.00702
24866	0.00695
24877	0.00643
24887	0.00543
24898	0.00432
24908	0.00363
24919	0.00343
24929	0.00355
24940	0.00386
24951	0.00429
24962	0.00475
24973	0.0052
24984	0.00558
24994	0.0059
25005	0.00618
25016	0.00631
25028	0.00621
25038	0.0058
25048	0.00513
25059	0.00441
25069	0.00393
25080	0.00376
25090	0.00384
25101	0.00409
25113	0.00448
25123	0.00486
25134	0.00528
25145	0.00569
25156	0.00608
25166	0.00644
25177	0.00677
25187	0.00705
25197	0.00721
25208	0.00707
25218	0.00642
25228	0.00529
25239	0.00414
25249	0.00351
25260	0.00336
25270	0.00352
25280	0.00384
25291	0.00428
25302	0.00474
25314	0.0052
25325	0.00558
25336	0.00588
25347	0.00608
25358	0.00609
25370	0.0058
25381	0.00523
25392	0.00459
25402	0.00412
25412	0.00389
25423	0.00389
25434	0.00408
25445	0.00438
25456	0.00477
25468	0.0052
25479	0.00559
25490	0.00595
25500	0.00629
25511	0.0066
25521	0.00681
25532	0.00686
25543	0.00654
25553	0.0058
25563	0.00479
25573	0.00397
25583	0.00356
25594	0.00352
25604	0.00374
25616	0.00412
25627	0.00456
25638	0.005
25649	0.00546
25660	0.00584
25670	0.00617
25681	0.00646
25691	0.00663
25701	0.00657
25712	0.00612
25723	0.00533
25733	0.00443
25744	0.00383
25754	0.00361
25764	0.00368
25775	0.00395
25786	0.00431
25797	0.00474
25808	0.00519
25820	0.00563
25830	0.006
25840	0.00634
25850	0.00664
25861	0.00687
25872	0.00688
25883	0.00648
25893	0.00561
25904	0.00454
25914	0.00379
25924	0.0035
25935	0.00354
25946	0.00383
25957	0.00422
25967	0.00462
25978	0.00508
25989	0.00551
26000	0.00587
26010	0.00618
26021	0.00641
26032	0.00648
26043	0.00624
26054	0.00559
26065	0.00474
26075	0.00407
26086	0.00372
26096	0.0037
26107	0.00389
26118	0.00422
26130	0.00468
26142	0.00512
26152	0.00553
26163	0.00593
26173	0.0063
26183	0.00664
26194	0.00694
26204	0.00714
26215	0.00711
26225	0.0066
26236	0.00552
26246	0.00437
26256	0.00364
26267	0.00338
26277	0.00348
26288	0.00379
26299	0.0042
26311	0.00471
26323	0.00517
26334	0.00556
26345	0.00588
26356	0.0061
26367	0.00615
26379	0.00592
26389	0.00544
26399	0.00482
26409	0.00424
26420	0.00391
26430	0.00385
26441	0.00398
26452	0.00426
26464	0.00466
26476	0.00509
26486	0.00547
26496	0.00583
26507	0.0062
26517	0.00652
26528	0.0068
26539	0.00696
26549	0.00684
26560	0.00627
26570	0.00526
26580	0.00426
26591	0.00365
26601	0.00346
26612	0.00359
26622	0.0039
26632	0.00428
26643	0.00473
26655	0.00518
26665	0.00557
26676	0.00594
26686	0.00623
26697	0.00643
26707	0.00645
26718	0.00617
26728	0.00551
26739	0.00468
26749	0.00403
26760	0.00372
26771	0.00371
26782	0.00393
26793	0.00429
26804	0.00469
26815	0.00513
26826	0.00554
26836	0.00594
26847	0.0063
26857	0.00664
26867	0.00695
26878	0.00714
26888	0.00711
26899	0.0066
26909	0.00552
26920	0.00437
26930	0.00364
26940	0.00338
26951	0.00348
26961	0.00379
26972	0.0042
26985	0.00472
26996	0.00517
27007	0.00556
27018	0.00588
27029	0.0061
27041	0.00615
27052	0.00592
27062	0.00544
27072	0.00482
27083	0.00424
27094	0.00391
27104	0.00385
27114	0.00398
27125	0.00426
27137	0.00466
27149	0.00509
27160	0.00547
27170	0.00583
27181	0.0062
27191	0.00652
27201	0.0068
27212	0.00696
27223	0.00685
27233	0.00628
27244	0.00527
27254	0.00427
27264	0.00366
27275	0.00346
27285	0.00358
27295	0.00389
27305	0.00427
27316	0.00471
27327	0.00516
27338	0.00556
27349	0.00594
27359	0.00623
27370	0.00643
27380	0.00645
27391	0.00617
27402	0.00551
27412	0.00468
27423	0.00404
27434	0.00372
27444	0.00372
27455	0.00393
27466	0.00429
27477	0.00469
27489	0.00513
27499	0.00554
27510	0.00594
27520	0.0063
27530	0.00664
27541	0.00695
27551	0.00714
27561	0.00711
27572	0.00662
27583	0.00554
27593	0.00439
27603	0.00365
27613	0.00338
27624	0.00347
27635	0.00378
27645	0.00418
27657	0.00468
27669	0.00514
27680	0.00555
27691	0.00587
27702	0.00609
27714	0.00615
27725	0.00593
27735	0.00546
27745	0.00483
27756	0.00425
27767	0.00391
27777	0.00385
27787	0.00398
27798	0.00426
27810	0.00465
27822	0.00508
27833	0.00546
27843	0.00582
27853	0.00617
27863	0.00649
27874	0.00678
27885	0.00695
27895	0.00687
27906	0.00634
27916	0.00534
27926	0.00432
27937	0.00368
27947	0.00346
27957	0.00357
27968	0.00387
27979	0.0043
27991	0.00476
28002	0.00521
28012	0.00558
28023	0.00595
28033	0.00624
28043	0.00644
28054	0.00646
28064	0.00619
28075	0.00553
28086	0.00469
28096	0.00404
28107	0.00372
28117	0.00371
28128	0.00391
28139	0.00427
28150	0.00465
28161	0.00509
28172	0.00552
28183	0.00592
28193	0.00629
28203	0.00663
28214	0.00694
28225	0.00713
28235	0.00709
28245	0.00658
28256	0.0055
28266	0.00436
28276	0.00363
28287	0.00338
28297	0.00347
28307	0.00377
28318	0.00417
28330	0.00466
28341	0.00512
28353	0.00553
28364	0.00587
28375	0.00609
28386	0.00617
28397	0.006
28407	0.00554
28418	0.0049
28428	0.00429
28439	0.00392
28449	0.00384
28460	0.00397
28471	0.00425
28483	0.00464
28495	0.00506
28506	0.00546
28517	0.00586
28528	0.00623
28539	0.00657
28549	0.00684
28560	0.00698
28571	0.00685
28581	0.00625
28591	0.00523
28602	0.00418
28613	0.00359
28623	0.00345
28634	0.00362
28645	0.00398
28656	0.00442
28669	0.00494
28679	0.00534
28690	0.00572
28700	0.00604
28711	0.00631
28722	0.00643
28733	0.00628
28744	0.00577
28755	0.00499
28766	0.00424
28776	0.00382
28786	0.0037
28796	0.00382
28807	0.00412
28818	0.00447
28828	0.00486
28839	0.00528
28850	0.00569
28860	0.00608
28870	0.00644
28881	0.00677
28891	0.00705
28902	0.0072
28913	0.00703
28923	0.00634
28934	0.00512
28944	0.00403
28954	0.00347
28965	0.00337
28975	0.00356
28986	0.00393
28997	0.00435
29009	0.00485
29020	0.00528
29031	0.00563
29041	0.00591
29052	0.00609
29064	0.00608
29074	0.00582
29085	0.00526
29096	0.00461
29106	0.00413
29117	0.00389
29128	0.0039
29139	0.0041
29150	0.00442
29162	0.00484
29174	0.00526
29184	0.00563
29194	0.00598
29205	0.00631
29215	0.00662
29225	0.00682
29236	0.00686
29247	0.00653
29258	0.00569
29269	0.00461
29279	0.00383
29290	0.00352
29300	0.00354
29311	0.00381
29321	0.00418
29333	0.00467
29345	0.00512
29355	0.00553
29366	0.00593
29377	0.00626
29388	0.00652
29399	0.00662
29409	0.00645
29420	0.00586
29430	0.00498
29441	0.00419
29451	0.00372
29461	0.00361
29472	0.00377
29483	0.0041
29494	0.00448
29504	0.00489
29515	0.0053
29525	0.0057
29536	0.00608
29546	0.00643
29556	0.00672
29567	0.00691
29577	0.00689
29588	0.00644
29598	0.00555
29608	0.00449
29619	0.00376
29629	0.00348
29640	0.00355
29650	0.00382
29661	0.00422
29671	0.00463
29683	0.00508
29694	0.00551
29704	0.00587
29715	0.00617
29726	0.00639
29736	0.00644
29746	0.00621
29756	0.00566
29767	0.00489
29777	0.00417
29787	0.00379
29798	0.0037
29808	0.00384
29818	0.00411
29828	0.00448
29839	0.00487
29849	0.00529
29860	0.00569
29871	0.00608
29881	0.00644
29891	0.00678
29902	0.00705
29912	0.0072
29923	0.00704
29933	0.00636
29944	0.00514
29954	0.00404
29965	0.00347
29975	0.00336
29986	0.00356
29996	0.00391
30007	0.00433
30018	0.00481
30030	0.00525
30041	0.00561
30051	0.0059
30063	0.00609
30074	0.00607
30084	0.00582
30095	0.00525
30106	0.00461
30117	0.00413
30127	0.0039
30137	0.00389
30148	0.00408
30159	0.00437
30170	0.00475
30182	0.00518
30193	0.00558
30204	0.00595
30214	0.00629
30225	0.0066
30235	0.00681
30246	0.00685
30257	0.00653
30267	0.00578
30277	0.00478
30287	0.00397
30297	0.00356
30308	0.00353
30319	0.00375
30330	0.00413
30341	0.00458
30352	0.00503
30364	0.00547
30374	0.00585
30384	0.00618
30395	0.00647
30405	0.00664
30417	0.00656
30428	0.00607
30439	0.00518
30449	0.00432
30459	0.00377
30470	0.0036
30480	0.0037
30490	0.00396
30501	0.00433
30512	0.00479
30523	0.00522
30535	0.00565
30546	0.00605
30556	0.0064
30567	0.00669
30577	0.00687
30587	0.00683
30598	0.00635
30608	0.00546
30619	0.00443
30629	0.00374
30639	0.0035
30650	0.00357
30660	0.00383
30671	0.00422
30681	0.00463
30692	0.00508
30703	0.00551
30713	0.00587
30724	0.00618
30734	0.00642
30745	0.00652
30756	0.00634
30766	0.00582
30776	0.00503
30787	0.00424
30797	0.00378
30808	0.00366
30818	0.0038
30829	0.00411
30840	0.00449
30850	0.00489
30861	0.0053
30871	0.0057
30882	0.00609
30892	0.00645
30903	0.00677
30913	0.00703
30924	0.00712
30935	0.00684
30945	0.00604
30955	0.00491
30965	0.00391
30976	0.00345
30986	0.00342
30997	0.00364
31007	0.004
31019	0.00447
31029	0.00489
31040	0.00531
31052	0.0057
31063	0.006
31073	0.00618
31083	0.00619
31094	0.00592
31105	0.00535
31116	0.00467
31126	0.00414
31137	0.00386
31147	0.00384
31157	0.00401
31167	0.00428
31177	0.00462
31189	0.00504
31200	0.00545
31211	0.00586
31222	0.00623
31233	0.00657
31243	0.00686
31253	0.00703
31264	0.00698
31274	0.00649
31284	0.0055
31295	0.00436
31306	0.00365
31316	0.00342
31326	0.00353
31336	0.00382
31347	0.00423
31358	0.00465
31369	0.0051
31380	0.00552
31391	0.00587
31402	0.00616
31412	0.00632
31423	0.00627
31434	0.00593
31444	0.00525
31455	0.0045
31466	0.00397
31476	0.00376
31486	0.00381
31497	0.00403
31508	0.00436
31519	0.00478
31531	0.00521
31542	0.00565
31553	0.00605
31564	0.00641
31574	0.00676
31585	0.00704
31595	0.0072
31605	0.00708
31616	0.00645
31626	0.00533
31637	0.00416
31647	0.00352
31657	0.00336
31668	0.00351
31678	0.00383
31689	0.00426
31700	0.00471
31711	0.00517
31723	0.00556
31734	0.00588
31745	0.00608
31756	0.0061
31767	0.00584
31779	0.00528
31790	0.00463
31800	0.00413
31811	0.00389
31821	0.0039
31832	0.00409
31844	0.00441
31856	0.00481
31868	0.00524
31878	0.00561
31888	0.00597
31899	0.00631
31909	0.00661
31919	0.00682
31930	0.00687
31941	0.00656
31952	0.00572
31962	0.00472
31972	0.00393
31982	0.00354
31993	0.00353
32003	0.00376
32013	0.0041
32024	0.00453
32035	0.00496
32047	0.00544
32058	0.00582
32068	0.00616
32079	0.00645
32089	0.00661
32100	0.00654
32111	0.00605
32121	0.00525
32132	0.00438
32142	0.00381
32153	0.00362
32163	0.0037
32173	0.00396
32184	0.00432
32195	0.00476
32206	0.0052
32218	0.00564
32229	0.00604
32239	0.0064
32249	0.0067
32260	0.00691
32271	0.0069
32282	0.00648
32292	0.0056
32302	0.00453
32313	0.00378
32323	0.00348
32334	0.00354
32345	0.00384
32356	0.00424
32367	0.00466
32378	0.00512
32389	0.00553
32399	0.00588
32409	0.00618
32420	0.00639
32431	0.00642
32442	0.00615
32453	0.00549
32464	0.00467
32474	0.00404
32485	0.00373
32495	0.00373
32507	0.00396
32517	0.00427
32527	0.00465
32538	0.00509
32549	0.00552
32560	0.00593
32571	0.00629
32581	0.00663
32591	0.00695
32602	0.00717
32612	0.00719
32622	0.00679
32632	0.00585
32642	0.00464
32653	0.00376
32663	0.00339
32673	0.0034
32683	0.00365
32693	0.00402
32706	0.00452
32716	0.00496
32727	0.00536
32739	0.00572
32749	0.00597
32761	0.0061
32771	0.00601
32781	0.00568
32792	0.00512
32802	0.00451
32812	0.00407
32822	0.00389
32833	0.00392
32844	0.00414
32856	0.00449
32866	0.00483
32878	0.00526
32889	0.00563
32899	0.00598
32909	0.00631
32920	0.00661
32930	0.00681
32941	0.00683
32951	0.00647
32962	0.00561
32972	0.00462
32983	0.00388
32993	0.00354
33003	0.00355
33014	0.00379
33024	0.00415
33036	0.00462
33047	0.00507
33058	0.0055
33068	0.00587
33079	0.00623
33090	0.00651
33100	0.00667
33111	0.00661
33122	0.00614
33133	0.00525
33143	0.00436
33153	0.00378
33163	0.00358
33173	0.00366
33184	0.00394
33195	0.00431
33206	0.00475
33217	0.00519
33229	0.00563
33239	0.006
33249	0.00633
33260	0.00663
33270	0.00681
33281	0.00675
33291	0.00631
33302	0.00542
33312	0.00441
33323	0.00374
33334	0.00352
33344	0.00361
33355	0.0039
33365	0.00427
33376	0.0047
33387	0.00515
33397	0.00555
33408	0.00594
33419	0.00627
33430	0.00652
33440	0.00661
33450	0.00646
33461	0.00588
33472	0.005
33482	0.0042
33492	0.00373
33503	0.00362
33514	0.00377
33525	0.00409
33535	0.00447
33545	0.00487
33556	0.00529
33566	0.00569
33577	0.00608
33587	0.00643
33598	0.00672
33608	0.00693
33619	0.00692
33629	0.0065
33639	0.00563
33650	0.00455
33660	0.00379
33671	0.00347
33681	0.00352
33692	0.0038
33703	0.00418
33715	0.00468
33726	0.00513
33737	0.00554
33747	0.00589
33758	0.00618
33769	0.00638
33780	0.00636
33792	0.00599
33802	0.00531
33813	0.00453
33823	0.00397
33833	0.00373
33844	0.00377
33854	0.00398
33865	0.00431
33876	0.00471
33887	0.00515
33898	0.00555
33908	0.00595
33918	0.00631
33928	0.00665
33939	0.00696
33949	0.00718
33959	0.00721
33969	0.00685
33980	0.00592
33990	0.0047
34000	0.00379
34010	0.00338
34021	0.0034
34032	0.00367
34042	0.00406
34053	0.00449
34064	0.00493
34075	0.00534
34086	0.00571
34097	0.00596
34107	0.00608
34118	0.00601
34128	0.00569
34139	0.00513
34149	0.00452
34160	0.00409
34170	0.0039
34181	0.00393
34192	0.00415
34204	0.00449
34214	0.00484
34226	0.00527
34236	0.00563
34247	0.00598
34257	0.00631
34268	0.0066
34278	0.00678
34289	0.00675
34300	0.00635
34310	0.00547
34320	0.00452
34331	0.00383
34341	0.00354
34352	0.00359
34362	0.00385
34373	0.00424
34383	0.00465
34395	0.0051
34405	0.00552
34416	0.00592
34427	0.00627
34437	0.00656
34447	0.00675
34459	0.00672
34469	0.00631
34480	0.00543
34490	0.00449
34500	0.00382
34510	0.00355
34521	0.00361
34531	0.00387
34543	0.00426
34553	0.00468
34564	0.00513
34575	0.00554
34586	0.00593
34597	0.00627
34607	0.00654
34618	0.00667
34628	0.00656
34639	0.00602
34650	0.00513
34660	0.00428
34670	0.00375
34680	0.00359
34691	0.0037
34701	0.00397
34712	0.00435
34723	0.00482
34734	0.00525
34745	0.00567
34756	0.00606
34767	0.00641
34777	0.00669
34788	0.00686
34799	0.00677
34810	0.00622
34820	0.00522
34831	0.00425
34841	0.00366
34852	0.0035
34862	0.00363
34873	0.00396
34884	0.00437
34896	0.00485
34907	0.00528
34918	0.00569
34928	0.00603
34939	0.00632
34949	0.00651
34959	0.00653
34969	0.00626
34979	0.0056
34990	0.00475
35000	0.00406
35011	0.0037
35022	0.00367
35032	0.00387
35043	0.00421
35055	0.00467
35066	0.00511
35077	0.00553
35088	0.00593
35098	0.00629
35108	0.00663
35119	0.00691
35129	0.00707
35140	0.00696
35150	0.00641
35161	0.0053
35171	0.00422
35181	0.00359
35191	0.00341
35202	0.00355
35212	0.00386
35224	0.0043
35235	0.00477
35247	0.00522
35257	0.00559
35267	0.00591
35277	0.00614
35288	0.00626
35298	0.00616
35309	0.00576
35320	0.0051
35330	0.0044
35341	0.00394
35352	0.00379
35362	0.00388
35372	0.00411
35384	0.00449
35395	0.00487
35406	0.00529
35417	0.00569
35428	0.00608
35438	0.00643
35448	0.00676
35459	0.00703
35469	0.00714
35480	0.00694
35490	0.00622
35500	0.00508
35510	0.00407
35521	0.00349
35531	0.00339
35542	0.00358
35553	0.00395
35564	0.00439
35576	0.0049
35587	0.00532
35598	0.0057
35610	0.006
35620	0.00618
35630	0.00618
35641	0.00591
35652	0.00533
35663	0.00465
35673	0.00413
35684	0.00385
35694	0.00384
35704	0.00402
35714	0.0043
35725	0.00464
35736	0.00507
35747	0.00547
35758	0.00587
35769	0.00624
35780	0.00658
35790	0.00686
35800	0.00703
35811	0.00694
35822	0.00641
35832	0.00541
35842	0.0043
35853	0.00362
35863	0.00343
35874	0.00356
35884	0.00387
35896	0.00432
35908	0.00479
35919	0.00524
35929	0.0056
35940	0.00596
35951	0.00622
35961	0.00634
35973	0.00622
35984	0.00573
35995	0.00497
36005	0.0043
36016	0.00387
36026	0.00375
36037	0.00386
36047	0.00411
36057	0.00444
36070	0.00492
36080	0.00533
36091	0.00571
36101	0.0061
36111	0.00645
36122	0.00679
36132	0.00706
36142	0.00721
36153	0.00706
36164	0.00639
36174	0.00516
36185	0.00406
36195	0.00348
36205	0.00336
36216	0.00354
36226	0.00389
36237	0.0043
36248	0.00476
36260	0.00522
36271	0.00559
36281	0.00589
36293	0.00608
36304	0.00608
36314	0.00583
36324	0.00535
36334	0.00475
36345	0.00421
36355	0.00393
36365	0.00388
36375	0.00401
36387	0.00431
36397	0.00464
36409	0.00505
36420	0.00546
36431	0.00582
36441	0.00616
36451	0.00647
36461	0.00673
36472	0.00686
36482	0.00673
36493	0.00613
36504	0.00512
36514	0.00418
36525	0.00364
36535	0.00351
36546	0.00368
36557	0.004
36568	0.00444
36578	0.00484
36589	0.00527
36600	0.00568
36611	0.00606
36621	0.00636
36631	0.00659
36642	0.00665
36653	0.0064
36663	0.00576
36673	0.00487
36684	0.00406
36694	0.00366
36704	0.00361
36715	0.0038
36726	0.00412
36737	0.00453
36747	0.00496
36757	0.00535
36769	0.00578
36779	0.00614
36789	0.00647
36799	0.00673
36810	0.00687
36820	0.00673
36831	0.00612
36842	0.00511
36852	0.00418
36863	0.00363
36873	0.0035
36884	0.00366
36894	0.00397
36905	0.00438
36917	0.00488
36928	0.0053
36938	0.00569
36948	0.00603
36959	0.00633
36969	0.00651
36980	0.00652
36991	0.0062
37001	0.00552
37011	0.00467
37021	0.00401
37032	0.00368
37042	0.00367
37052	0.00387
37063	0.00421
37075	0.00466
37087	0.0051
37097	0.00552
37108	0.00593
37118	0.00629
37129	0.00663
37139	0.0069
37149	0.00706
37159	0.00698
37169	0.00647
37179	0.00548
37190	0.00435
37200	0.00364
37210	0.00341
37221	0.00352
37232	0.00383
37243	0.00426
37254	0.00469
37265	0.00515
37276	0.00555
37287	0.00588
37297	0.00613
37308	0.00626
37319	0.00617
37329	0.00577
37340	0.0051
37351	0.00441
37361	0.00394
37372	0.00379
37382	0.00387
37394	0.00414
37404	0.00448
37415	0.00485
37426	0.00527
37437	0.00568
37448	0.00607
37458	0.00643
37469	0.00676
37479	0.00703
37490	0.00715
37501	0.00694
37511	0.0062
37521	0.00507
37531	0.00406
37542	0.00349
37552	0.00339
37562	0.00358
37573	0.00394
37584	0.00438
37596	0.00488
37608	0.00531
37619	0.00569
37630	0.006
37641	0.00617
37651	0.00616
37662	0.00586
37673	0.00529
37684	0.00462
37694	0.00411
37705	0.00385
37715	0.00386
37725	0.00404
37736	0.00434
37747	0.00471
37759	0.00515
37770	0.00556
37781	0.00594
37791	0.00629
37802	0.00661
37812	0.00688
37822	0.00701
37833	0.00685
37843	0.00623
37854	0.00512
37865	0.0041
37875	0.00355
37886	0.00344
37896	0.00363
37908	0.00399
37919	0.00445
37929	0.00487
37940	0.00529
37951	0.00569
37962	0.00602
37972	0.00626
37982	0.00638
37994	0.00626
38005	0.00576
38016	0.005
38026	0.00431
38036	0.00386
38046	0.00373
38057	0.00383
38068	0.00411
38078	0.00445
38091	0.00494
38101	0.00534
38112	0.00572
38122	0.0061
38132	0.00646
38142	0.00679
38153	0.00707
38163	0.00722
38174	0.00707
38184	0.0064
38195	0.00518
38205	0.00407
38215	0.00348
38226	0.00336
38236	0.00353
38246	0.00387
38258	0.00434
38270	0.00483
38282	0.00527
38292	0.00562
38303	0.00591
38314	0.00608
38326	0.00604
38336	0.00575
38347	0.00519
38358	0.00456
38368	0.0041
38378	0.0039
38389	0.00391
38400	0.00411
38411	0.00443
38424	0.00485
38434	0.00522
38446	0.00563
38456	0.00598
38466	0.00631
38477	0.00661
38487	0.0068
38498	0.00681
38509	0.00643
38519	0.00557
38530	0.00459
38540	0.00387
38550	0.00354
38560	0.00356
38571	0.00381
38582	0.00419
38594	0.00467
38605	0.00512
38616	0.00553
38627	0.00593
38637	0.00627
38648	0.00654
38658	0.00669
38669	0.0066
38680	0.00609
38690	0.00519
38700	0.00432
38711	0.00376
38721	0.00358
38731	0.00366
38742	0.00395
38752	0.00433
38764	0.00479
38775	0.00522
38786	0.00565
38796	0.00601
38806	0.00634
38817	0.00663
38828	0.00679
38838	0.00671
38848	0.00625
38859	0.00535
38870	0.00436
38880	0.00372
38891	0.00353
38902	0.00364
38913	0.00396
38923	0.00436
38935	0.00484
38946	0.00527
38957	0.00568
38967	0.00603
38977	0.00634
38988	0.00657
38999	0.00665
39009	0.00643
39020	0.0058
39030	0.00491
39040	0.00414
39050	0.0037
39061	0.0036
39071	0.00377
39082	0.0041
39093	0.00449
39103	0.00491
39114	0.00532
39124	0.00571
39135	0.00609
39145	0.00644
39156	0.00671
39166	0.00688
39176	0.00682
39187	0.0063
39198	0.00531
39208	0.00431
39219	0.00368
39229	0.00349
39239	0.00359
39250	0.00388
39261	0.00432
39273	0.00478
39284	0.00522
39296	0.00565
39306	0.006
39317	0.0063
39327	0.00648
39338	0.00646
39348	0.00612
39359	0.00544
39369	0.00462
39379	0.00399
39390	0.00369
39400	0.0037
39411	0.00393
39423	0.0043
39434	0.00472
39445	0.00516
39455	0.00556
39466	0.00595
39476	0.00631
39486	0.00665
39497	0.00695
39508	0.00713
39518	0.00705
39529	0.00646
39539	0.00536
39550	0.00425
39560	0.00359
39570	0.00338
39580	0.00351
39591	0.00384
39603	0.00428
39614	0.00474
39625	0.00519
39636	0.00558
39647	0.00589
39658	0.00611
39669	0.00618
39680	0.00599
39690	0.00552
39700	0.00488
39711	0.00428
39722	0.00391
39733	0.00384
39743	0.00397
39754	0.00425
39766	0.00464
39778	0.00507
39789	0.00547
39800	0.00587
39810	0.00623
39821	0.00657
39832	0.00685
39842	0.007
39853	0.00689
39863	0.00633
39873	0.00532
39884	0.00424
39895	0.0036
39905	0.00344
39915	0.00358
39926	0.0039
39936	0.0043
39947	0.00476
39959	0.00521
39969	0.00559
39980	0.00595
39990	0.00622
40000	0.00638
40011	0.00635
40022	0.00598
40033	0.0053
40043	0.00452
40054	0.00397
40064	0.00374
40075	0.00377
40085	0.00399
40095	0.00432
40107	0.00473
40118	0.00517
40128	0.00556
40139	0.00596
40149	0.00631
40159	0.00665
40170	0.00696
40180	0.00717
40190	0.00718
40200	0.00676
40211	0.00572
40221	0.00453
40232	0.00367
40242	0.00337
40252	0.00343
40262	0.00369
40273	0.0041
40284	0.00456
40296	0.00501
40306	0.0054
40317	0.00574
40327	0.00598
40338	0.0061
40348	0.00603
40358	0.00572
40369	0.00516
40379	0.00454
40390	0.00409
40400	0.00389
40410	0.00391
40421	0.00412
40433	0.00445
40446	0.00489
40456	0.00526
40467	0.00565
40477	0.006
40488	0.00632
40498	0.00662
40508	0.00681
40519	0.00682
40530	0.00642
40541	0.00555
40551	0.00458
40561	0.00386
40571	0.00354
40581	0.00356
40592	0.00382
40603	0.00419
40615	0.00468
40626	0.00513
40637	0.00554
40648	0.00593
40658	0.00627
40669	0.00654
40679	0.00669
40689	0.0066
40700	0.00611
40711	0.00522
40721	0.00434
40731	0.00377
40741	0.00358
40751	0.00366
40763	0.00395
40773	0.00432
40784	0.00477
40796	0.00521
40807	0.00565
40817	0.00601
40827	0.00634
40838	0.00663
40848	0.0068
40858	0.00676
40868	0.00634
40879	0.00545
40890	0.00443
40901	0.00375
40911	0.00352
40921	0.00361
40932	0.0039
40944	0.00433
40955	0.00479
40966	0.00523
40978	0.00566
40988	0.00601
40998	0.00632
41009	0.00655
41019	0.00662
41030	0.00641
41040	0.00579
41051	0.0049
41061	0.00414
41071	0.0037
41082	0.00362
41092	0.00379
41104	0.00414
41115	0.00455
41126	0.00498
41138	0.00545
41148	0.00584
41159	0.00622
41170	0.00656
41180	0.00683
41190	0.00695
41201	0.00679
41211	0.00616
41221	0.00514
41232	0.00419
41242	0.00362
41252	0.00347
41263	0.00362
41274	0.00396
41285	0.00437
41297	0.00487
41308	0.0053
41319	0.00569
41329	0.00602
41339	0.00628
41350	0.00643
41361	0.00635
41372	0.00591
41383	0.00514
41393	0.00439
41403	0.00389
41413	0.00371
41424	0.00378
41435	0.00404
41446	0.00441
41458	0.00489
41469	0.0053
41480	0.0057
41490	0.00609
41500	0.00645
41511	0.00678
41521	0.00706
41531	0.00721
41542	0.00707
41552	0.0064
41563	0.00518
41574	0.00407
41584	0.00348
41594	0.00336
41605	0.00353
41615	0.00387
41627	0.00434
41639	0.00483
41650	0.00527
41661	0.00562
41672	0.00591
41683	0.00608
41695	0.00604
41705	0.00575
41716	0.00518
41726	0.00456
41737	0.0041
41747	0.0039
41757	0.00391
41769	0.00411
41780	0.00443
41792	0.00485
41803	0.00523
41814	0.00563
41825	0.00599
41835	0.00631
41846	0.00661
41856	0.00681
41866	0.00681
41877	0.00642
41888	0.00555
41898	0.00458
41908	0.00386
41919	0.00354
41929	0.00356
41940	0.00382
41950	0.00419
41963	0.00469
41974	0.00514
41984	0.00554
41995	0.00594
42006	0.00628
42016	0.00655
42026	0.00669
42038	0.00659
42048	0.00607
42059	0.00517
42069	0.00431
42079	0.00375
42089	0.00357
42099	0.00367
42111	0.00396
42121	0.00435
42133	0.00481
42144	0.00524
42155	0.00566
42166	0.00606
42177	0.0064
42187	0.00667
42198	0.0068
42209	0.00663
42220	0.00597
42231	0.00496
42242	0.00409
42252	0.00362
42263	0.00354
42273	0.00372
42284	0.00407
42294	0.00446
42305	0.00487
42315	0.00529
42326	0.00569
42337	0.00607
42347	0.00637
42358	0.00659
42368	0.00665
42378	0.00641
42388	0.00578
42399	0.00489
42409	0.00412
42419	0.00369
42429	0.0036
42440	0.00377
42451	0.00412
42462	0.00452
42473	0.00494
42483	0.00535
42493	0.00573
42504	0.0061
42514	0.00644
42524	0.00672
42534	0.00688
42545	0.00681
42556	0.00627
42567	0.00527
42577	0.00428
42588	0.00367
42598	0.00349
42608	0.0036
42619	0.0039
42629	0.00428
42640	0.00471
42651	0.00517
42661	0.00556
42672	0.00594
42683	0.00623
42693	0.00645
42704	0.00649
42714	0.00624
42725	0.00558
42736	0.00474
42746	0.00406
42757	0.00371
42767	0.00369
42778	0.00388
42789	0.00421
42801	0.00466
42812	0.0051
42823	0.00552
42834	0.00593
42844	0.00629
42854	0.00663
42864	0.00692
42875	0.00712
42885	0.00709
42896	0.00658
42907	0.0055
42917	0.00436
42927	0.00364
42937	0.00339
42948	0.00348
42958	0.00378
42969	0.00418
42981	0.00468
42993	0.00514
43004	0.00555
43015	0.00588
43025	0.0061
43036	0.00618
43047	0.00602
43058	0.00556
43068	0.00492
43079	0.0043
43090	0.00392
43101	0.00384
43112	0.00398
43123	0.00427
43136	0.00469
43147	0.00512
43158	0.00549
43169	0.00589
43179	0.00625
43190	0.00658
43200	0.00686
43211	0.007
43221	0.00688
43232	0.0063
43242	0.00529
43253	0.00421
43263	0.0036
43274	0.00344
43284	0.00359
43295	0.00392
43305	0.00432
43317	0.00479
43328	0.00524
43339	0.00566
43350	0.006
43360	0.00625
43370	0.00639
43381	0.00631
43393	0.00587
43403	0.00518
43413	0.00443
43423	0.00392
43434	0.00373
43444	0.0038
43455	0.00405
43467	0.00442
43479	0.00489
43490	0.00531
43500	0.0057
43511	0.00609
43521	0.00645
43532	0.00678
43542	0.00706
43552	0.00721
43563	0.00707
43573	0.00641
43584	0.00519
43594	0.00408
43605	0.00348
43615	0.00336
43625	0.00353
43636	0.00387
43647	0.00433
43659	0.00482
43671	0.00526
43681	0.00562
43692	0.00591
43704	0.00608
43715	0.00605
43725	0.00577
43736	0.0052
43747	0.00457
43757	0.00411
43768	0.0039
43778	0.00391
43789	0.0041
43800	0.00442
43812	0.00483
43824	0.00525
43835	0.00562
43845	0.00598
43855	0.00631
43866	0.00661
43876	0.00681
43887	0.00682
43898	0.00646
43909	0.0056
43919	0.00461
43929	0.00388
43939	0.00354
43949	0.00355
43960	0.0038
43971	0.00417
43983	0.00464
43994	0.00509
44005	0.00551
44016	0.00592
44026	0.00626
44037	0.00654
44047	0.00669
44058	0.00659
44069	0.00607
44080	0.00517
44090	0.00431
44100	0.00376
44110	0.00358
44120	0.00367
44132	0.00397
44142	0.00436
44154	0.00483
44165	0.00526
44176	0.00567
44187	0.00606
44198	0.00641
44208	0.00668
44219	0.00681
44230	0.00666
44240	0.00611
44250	0.0052
44260	0.00425
44271	0.00367
44282	0.00352
44293	0.00367
44303	0.00398
44314	0.00439
44326	0.00489
44337	0.0053
44347	0.0057
44358	0.00607
44368	0.00637
44379	0.00658
44389	0.00662
44400	0.00632
44410	0.00566
44420	0.00478
44430	0.00406
44441	0.00367
44451	0.00362
44461	0.0038
44471	0.0041
44482	0.00449
44492	0.0049
44503	0.00532
44513	0.00571
44524	0.00609
44534	0.00644
44544	0.00672
44555	0.00691
44565	0.00687
44576	0.0064
44587	0.00542
44597	0.00439
44608	0.00371
44618	0.00347
44628	0.00356
44639	0.00384
44650	0.00425
44660	0.00468
44672	0.00513
44682	0.00554
44693	0.00589
44703	0.00619
44714	0.0064
44724	0.00644
44735	0.00619
44746	0.00553
44757	0.0047
44767	0.00405
44778	0.00373
44789	0.00372
44800	0.00393
44811	0.00429
44822	0.00469
44833	0.00513
44844	0.00554
44855	0.00594
44865	0.0063
44875	0.00664
44885	0.00695
44896	0.00716
44906	0.00716
44917	0.00671
44927	0.00566
44938	0.00448
44948	0.00365
44958	0.00337
44969	0.00344
44979	0.00373
44990	0.00416
45002	0.00465
45014	0.00511
45026	0.00553
45037	0.00586
45049	0.00607
45059	0.0061
45071	0.00585
45081	0.00537
45091	0.00476
45102	0.00422
45112	0.00393
45122	0.00388
45132	0.00401
45144	0.00429
45156	0.0047
45169	0.00513
45179	0.0055
45190	0.00589
45201	0.00624
45211	0.00654
45221	0.00678
45231	0.00687
45243	0.00663
45253	0.00593
45263	0.00492
45274	0.00405
45284	0.00359
45295	0.00351
45305	0.0037
45316	0.00404
45326	0.00443
45338	0.00495
45348	0.00535
45359	0.00573
45369	0.00609
45379	0.00639
45390	0.00659
45400	0.00662
45411	0.00631
45422	0.00555
45433	0.00461
45444	0.00392
45454	0.00363
45465	0.00365
45475	0.00389
45487	0.00427
45497	0.00468
45509	0.00513
45519	0.00554
45530	0.00594
45540	0.00629
45551	0.00661
45562	0.00685
45573	0.00689
45583	0.00656
45594	0.00572
45605	0.00464
45615	0.00384
45625	0.00351
45636	0.00353
45647	0.00379
45657	0.00415
45669	0.00462
45680	0.00507
45691	0.0055
45702	0.00586
45712	0.00618
45722	0.00641
45733	0.00649
45745	0.00626
45756	0.00563
45767	0.00478
45777	0.00409
45788	0.00372
45798	0.00369
45809	0.00387
45819	0.00419
45831	0.00462
45842	0.00506
45853	0.0055
45865	0.00591
45875	0.00628
45885	0.00662
45895	0.00691
45906	0.00712
45917	0.0071
45927	0.00659
45938	0.00551
45948	0.00437
45958	0.00364
45969	0.00338
45980	0.00349
45990	0.0038
46001	0.00422
46011	0.00464
46023	0.0051
46035	0.00552
46046	0.00586
46057	0.00609
46068	0.00617
46079	0.006
46089	0.00554
46100	0.0049
46110	0.00429
46121	0.00392
46131	0.00384
46142	0.00397
46153	0.00425
46165	0.00463
46177	0.00505
46188	0.00546
46199	0.00586
46210	0.00623
46221	0.00657
46231	0.00684
46242	0.00698
46253	0.00683
46263	0.00622
46273	0.0052
46284	0.00416
46295	0.00358
46306	0.00346
46316	0.00363
46326	0.00395
46337	0.00437
46349	0.00487
46360	0.00529
46371	0.00569
46381	0.00602
46391	0.00628
46402	0.00643
46413	0.00636
46424	0.00593
46435	0.00515
46445	0.0044
46455	0.0039
46465	0.00371
46476	0.00378
46487	0.00403
46498	0.0044
46510	0.00486
46521	0.00528
46532	0.00569
46542	0.00608
46552	0.00644
46563	0.00678
46573	0.00705
46584	0.00719
46595	0.00701
46605	0.00631
46616	0.00508
46626	0.00401
46637	0.00347
46647	0.00337
46658	0.00358
46669	0.00395
46680	0.0044
46692	0.00491
46704	0.00533
46715	0.00571
46725	0.00596
46736	0.00612
46748	0.00604
46760	0.00564
46770	0.00508
46780	0.00448
46790	0.00405
46800	0.00387
46811	0.00392
46822	0.00414
46834	0.0045
46845	0.00486
46855	0.00524
46866	0.00564
46877	0.00599
46887	0.00632
46897	0.00662
46907	0.00683
46918	0.00688
46929	0.00656
46940	0.00572
46950	0.00464
46961	0.00384
46971	0.00352
46982	0.00355
46993	0.00381
47004	0.0042
47016	0.0047
47027	0.00515
47038	0.00555
47049	0.00594
47060	0.00627
47070	0.00651
47081	0.0066
47091	0.00642
47102	0.00582
47113	0.00493
47123	0.00416
47133	0.00372
47144	0.00363
47155	0.0038
47166	0.00414
47177	0.00456
47188	0.00499
47200	0.00545
47210	0.00584
47221	0.00622
47232	0.00656
47243	0.00684
47253	0.00697
47263	0.00683
47274	0.00623
47284	0.00521
47295	0.00417
47305	0.00358
47316	0.00346
47327	0.00363
47338	0.00398
47349	0.00442
47362	0.00494
47372	0.00535
47383	0.00572
47393	0.00604
47403	0.00628
47413	0.00639
47425	0.00627
47436	0.00577
47447	0.005
47457	0.0043
47467	0.00386
47477	0.00372
47487	0.00382
47498	0.0041
47508	0.00443
47521	0.00491
47532	0.00532
47542	0.00571
47553	0.0061
47563	0.00645
47573	0.00679
47583	0.00707
47594	0.00723
47604	0.00712
47614	0.00649
47624	0.00538
47635	0.0042
47645	0.00353
47655	0.00335
47666	0.00349
47677	0.00385
47688	0.0043
47700	0.00476
47712	0.00522
47723	0.00559
47734	0.00589
47744	0.00605
47755	0.00605
47766	0.00579
47776	0.00531
47786	0.00473
47797	0.0042
47807	0.00394
47817	0.0039
47828	0.00404
47838	0.0043
47848	0.00462
47860	0.00503
47870	0.00539
47881	0.00576
47891	0.00611
47902	0.00643
47912	0.00669
47923	0.0068
47934	0.00662
47945	0.00595
47956	0.00494
47967	0.00407
47977	0.00361
47988	0.00355
47999	0.00375
48010	0.00411
48021	0.00454
48032	0.00498
48043	0.00544
48054	0.00583
48065	0.00621
48075	0.00651
48086	0.00673
48096	0.00677
48107	0.00643
48118	0.00567
48128	0.00469
48138	0.00393
48149	0.00357
48159	0.00357
48170	0.0038
48180	0.00415
48192	0.0046
48203	0.00504
48214	0.00549
48224	0.00586
48234	0.00619
48245	0.00648
48256	0.00664
48267	0.00658
48278	0.00611
48288	0.00531
48298	0.00442
48309	0.00382
48319	0.0036
48329	0.00367
48340	0.00394
48350	0.0043
48361	0.00473
48372	0.00517
48383	0.00556
48393	0.00595
48403	0.0063
48414	0.00662
48424	0.00683
48435	0.00688
48446	0.00655
48456	0.00571
48467	0.00463
48478	0.00384
48488	0.00352
48499	0.00354
48509	0.0038
48520	0.00417
48532	0.00465
48543	0.00511
48554	0.00552
48564	0.00588
48575	0.00619
48585	0.00642
48596	0.00651
48607	0.0063
48618	0.00567
48629	0.00482
48639	0.00411
48650	0.00373
48660	0.00368
48670	0.00384
48681	0.00415
48692	0.00455
48703	0.00497
48713	0.00537
48724	0.00579
48734	0.00615
48744	0.00649
48754	0.00681
48765	0.00706
48775	0.00712
48786	0.00683
48796	0.00594
48807	0.00472
48818	0.00381
48828	0.00342
48838	0.00343
48849	0.0037
48860	0.0041
48871	0.00455
48882	0.005
48893	0.00539
48904	0.00574
48915	0.00603
48925	0.00618
48936	0.00615
48947	0.0058
48957	0.00523
48968	0.00457
48978	0.00408
48989	0.00384
48999	0.00386
49010	0.00406
49020	0.00438
49032	0.00478
49044	0.00521
49054	0.0056
49065	0.00597
49075	0.00631
49085	0.00663
49096	0.00689
49106	0.00703
49117	0.00687
49127	0.00625
49138	0.00513
49148	0.00411
49159	0.00355
49169	0.00344
49179	0.00361
49190	0.00396
49202	0.0044
49214	0.00492
49225	0.00533
49235	0.00571
49246	0.00603
49256	0.00626
49267	0.00636
49277	0.00622
49289	0.00571
49299	0.00495
49309	0.00428
49320	0.00386
49330	0.00374
49341	0.00385
49351	0.00411
49361	0.00445
49374	0.00493
49384	0.00533
49395	0.00572
49405	0.0061
49415	0.00645
49426	0.00679
49436	0.00706
49446	0.00721
49457	0.00707
49467	0.0064
49478	0.00518
49488	0.00407
49499	0.00348
49509	0.00336
49519	0.00354
49530	0.00388
49540	0.00427
49551	0.00473
49563	0.00518
49574	0.00557
49585	0.00588
49596	0.00607
49607	0.00607
49618	0.00583
49628	0.00535
49638	0.00475
49648	0.00422
49658	0.00393
49669	0.00388
49679	0.00402
49691	0.00431
49701	0.00464
49713	0.00506
49724	0.00547
49734	0.00582
49745	0.00616
49755	0.00647
49765	0.00672
49776	0.00685
49786	0.00669
49797	0.00606
49808	0.00505
49819	0.00413
49829	0.00362
49840	0.00352
49850	0.00368
49860	0.004
49872	0.00444
49882	0.00485
49892	0.00528
49903	0.00568
49914	0.00606
49924	0.00637
49934	0.0066
49945	0.00668
49956	0.00643
49967	0.00579
49977	0.0049
49987	0.00407
49998	0.00366
50008	0.00359
50019	0.00377
50030	0.00413
50041	0.00454
50052	0.00498
50064	0.00544
50074	0.00583
50085	0.00621
50095	0.00652
50106	0.00675
50116	0.00682
50126	0.00658
50137	0.00587
50147	0.00487
50158	0.00403
50168	0.00359
50179	0.00354
50189	0.00374
50200	0.0041
50211	0.00452
50222	0.00495
50232	0.00535
50242	0.00573
50253	0.00609
50263	0.00638
50274	0.00658
50285	0.00659
50296	0.00622
50307	0.00545
50317	0.00453
50328	0.00388
50338	0.00363
50348	0.00367
50359	0.00392
50371	0.00431
50382	0.00475
50393	0.00519
50405	0.00563
50415	0.006
50426	0.00637
50436	0.00668
50446	0.0069
50457	0.00694
50467	0.00662
50478	0.00579
50488	0.00469
50499	0.00386
50509	0.00349
50520	0.0035
50530	0.00375
50542	0.00415
50553	0.00462
50565	0.00507
50576	0.00551
50586	0.00586
50597	0.00617
50608	0.00638
50619	0.00639
50630	0.00608
50641	0.00541
50652	0.0046
50662	0.00401
50672	0.00374
50683	0.00375
50694	0.00397
50704	0.00429
50715	0.00468
50727	0.00512
50737	0.00554
50748	0.00594
50758	0.0063
50768	0.00664
50779	0.00696
50789	0.00718
50799	0.00721
50809	0.00684
50820	0.00592
50830	0.0047
50840	0.00379
50850	0.00338
50861	0.0034
50872	0.00368
50883	0.00407
50893	0.00451
50904	0.00495
50915	0.00536
50927	0.00572
50937	0.00596
50947	0.00608
50958	0.00601
50968	0.0057
50979	0.00513
50989	0.00453
51000	0.00409
51010	0.0039
51020	0.00393
51032	0.00414
51044	0.00449
51054	0.00483
51066	0.00526
51076	0.00562
51087	0.00598
51097	0.00631
51108	0.0066
51118	0.00679
51129	0.00677
51139	0.0064
51150	0.00553
51160	0.00456
51170	0.00385
51181	0.00355
51191	0.00358
51201	0.00382
51212	0.00419
51224	0.00468
51235	0.00513
51246	0.00554
51257	0.00593
51267	0.00628
51277	0.00656
51288	0.00674
51298	0.0067
51309	0.00627
51320	0.00539
51330	0.00446
51340	0.00382
51351	0.00356
51361	0.00362
51372	0.0039
51384	0.00431
51395	0.00476
51406	0.0052
51418	0.00564
51428	0.006
51438	0.00633
51448	0.00658
51459	0.0067
51469	0.00658
51480	0.00603
51490	0.00513
51500	0.00428
51510	0.00374
51521	0.00357
51531	0.00367
51542	0.00398
51553	0.00438
51565	0.00486
51576	0.00528
51586	0.00569
51597	0.00607
51608	0.00642
51618	0.00668
51629	0.00681
51640	0.00664
51651	0.00599
51662	0.00499
51672	0.0041
51683	0.00362
51694	0.00353
51704	0.00371
51715	0.00404
51727	0.00451
51737	0.00493
51747	0.00534
51758	0.00572
51769	0.00609
51779	0.00638
51789	0.00659
51800	0.00661
51811	0.00629
51822	0.00552
51833	0.00459
51843	0.00391
51854	0.00363
51865	0.00366
51875	0.00391
51887	0.0043
51898	0.00473
51909	0.00518
51919	0.00557
51930	0.00596
51940	0.00631
51951	0.00663
51961	0.00687
51972	0.00693
51982	0.00665
51993	0.00585
52003	0.00475
52014	0.00389
52025	0.0035
52035	0.00351
52046	0.00375
52057	0.00415
52069	0.00461
52080	0.00506
52091	0.0055
52102	0.00586
52112	0.00617
52123	0.00639
52134	0.00644
52144	0.00621
52154	0.00566
52164	0.00489
52175	0.00417
52185	0.00379
52195	0.0037
52205	0.00384
52216	0.00411
52226	0.00447
52236	0.00486
52247	0.00528
52258	0.00569
52268	0.00608
52279	0.00644
52289	0.00678
52299	0.00705
52310	0.0072
52321	0.00704
52331	0.00635
52342	0.00513
52352	0.00404
52362	0.00347
52373	0.00337
52383	0.00356
52394	0.00391
52404	0.00433
52416	0.00481
52428	0.00526
52438	0.00561
52449	0.00591
52461	0.00609
52472	0.00607
52482	0.00581
52493	0.00524
52504	0.0046
52514	0.00412
52524	0.0039
52535	0.0039
52546	0.00408
52557	0.00438
52568	0.00476
52580	0.00519
52591	0.00559
52602	0.00595
52612	0.00629
52623	0.0066
52633	0.00681
52644	0.00685
52655	0.00652
52666	0.00567
52676	0.00468
52686	0.00391
52696	0.00354
52707	0.00354
52718	0.00379
52728	0.00414
52740	0.0046
52751	0.00505
52762	0.00549
52772	0.00586
52782	0.00619
52793	0.00648
52803	0.00664
52813	0.00658
52825	0.00613
52835	0.00534
52845	0.00444
52856	0.00383
52866	0.0036
52876	0.00367
52887	0.00393
52897	0.00429
52908	0.00471
52919	0.00515
52930	0.00555
52940	0.00595
52951	0.0063
52961	0.00661
52971	0.00683
52982	0.00687
52993	0.00655
53004	0.00571
53014	0.00463
53025	0.00384
53035	0.00352
53046	0.00354
53057	0.00381
53067	0.00418
53079	0.00466
53091	0.00511
53102	0.00553
53112	0.00588
53122	0.00619
53132	0.00643
53143	0.00652
53154	0.00632
53164	0.00578
53174	0.005
53185	0.00422
53195	0.00377
53206	0.00367
53216	0.00381
53228	0.00413
53238	0.00452
53249	0.00494
53260	0.00534
53270	0.00572
53280	0.00611
53290	0.00646
53301	0.00678
53311	0.00704
53322	0.00712
53332	0.00687
53342	0.0061
53352	0.00497
53362	0.004
53373	0.00348
53383	0.0034
53393	0.0036
53404	0.00397
53415	0.00442
53428	0.00494
53439	0.00535
53450	0.00572
53461	0.00601
53471	0.00618
53481	0.00618
53493	0.00589
53503	0.00531
53514	0.00464
53524	0.00412
53535	0.00385
53545	0.00384
53555	0.00402
53566	0.00431
53576	0.00466
53588	0.00509
53598	0.00547
53609	0.00588
53620	0.00624
53631	0.00658
53641	0.00686
53651	0.00703
53662	0.00696
53672	0.00644
53683	0.00544
53693	0.00432
53704	0.00363
53714	0.00342
53725	0.00354
53735	0.00384
53746	0.00426
53757	0.00471
53768	0.00516
53779	0.00556
53789	0.00589
53800	0.00617
53811	0.00632
53822	0.00625
53832	0.00589
53843	0.00521
53853	0.00447
53864	0.00396
53874	0.00376
53884	0.00381
53895	0.00404
53906	0.00439
53918	0.00483
53929	0.00526
53941	0.00567
53951	0.00607
53962	0.00643
53972	0.00677
53983	0.00704
53993	0.0072
54004	0.00707
54014	0.00641
54024	0.00529
54035	0.00414
54045	0.00351
54055	0.00336
54066	0.00352
54076	0.00384
54087	0.00429
54098	0.00475
54110	0.00521
54121	0.00558
54132	0.00589
54143	0.00608
54154	0.0061
54166	0.00581
54177	0.00524
54188	0.0046
54198	0.00412
54209	0.00388
54220	0.0039
54231	0.00411
54242	0.00443
54255	0.00486
54265	0.00523
54276	0.00564
54286	0.00599
54297	0.00632
54307	0.00662
54317	0.00683
54328	0.00686
54339	0.00651
54350	0.00566
54361	0.00459
54371	0.00382
54382	0.00352
54392	0.00355
54403	0.00381
54413	0.00419
54426	0.00469
54437	0.00514
54447	0.00554
54458	0.00593
54469	0.00627
54480	0.00652
54491	0.00662
54501	0.00645
54512	0.00585
54522	0.00496
54533	0.00418
54543	0.00372
54553	0.00361
54564	0.00377
54575	0.0041
54586	0.00449
54596	0.0049
54607	0.00531
54617	0.00571
54628	0.00609
54638	0.00643
54648	0.00672
54659	0.00691
54669	0.00688
54680	0.00642
54691	0.00544
54701	0.0044
54711	0.00372
54722	0.00347
54732	0.00356
54742	0.00383
54753	0.00424
54764	0.00466
54775	0.00511
54786	0.00553
54796	0.00588
54807	0.00618
54818	0.0064
54828	0.00644
54838	0.0062
54848	0.00565
54859	0.00488
54869	0.00416
54879	0.00378
54889	0.0037
54900	0.00384
54910	0.00412
54920	0.00448
54931	0.00488
54941	0.0053
54952	0.0057
54963	0.00609
54973	0.00644
54983	0.00678
54994	0.00705
55004	0.0072
55015	0.00703
55025	0.00633
55036	0.00511
55046	0.00402
55057	0.00347
55067	0.00337
55078	0.00357
55088	0.00393
55099	0.00435
55111	0.00485
55123	0.00529
55133	0.00563
55144	0.00592
55155	0.00609
55166	0.00607
55176	0.0058
55187	0.00523
55198	0.00459
55209	0.00412
55219	0.00389
55229	0.0039
55240	0.00408
55251	0.00438
55262	0.00477
55274	0.0052
55285	0.00559
55296	0.00595
55306	0.00629
55317	0.0066
55327	0.00681
55338	0.00686
55349	0.00654
55359	0.0058
55369	0.00479
55379	0.00397
55389	0.00356
55400	0.00352
55410	0.00374
55422	0.00412
55433	0.00455
55444	0.005
55455	0.00546
55466	0.00584
55476	0.00617
55487	0.00646
55497	0.00662
55507	0.00657
55519	0.00611
55529	0.00532
55539	0.00443
55550	0.00383
55560	0.00361
55570	0.00368
55581	0.00395
55592	0.00431
55603	0.00475
55614	0.00519
55626	0.00563
55636	0.006
55647	0.00637
55657	0.00667
55668	0.00688
55678	0.00688
55689	0.00648
55699	0.00561
55710	0.00454
55720	0.00379
55730	0.0035
55741	0.00354
55752	0.00382
55763	0.00422
55773	0.00462
55784	0.00507
55795	0.0055
55806	0.00587
55816	0.00618
55827	0.00641
55838	0.00648
55849	0.00623
55860	0.00558
55871	0.00474
55882	0.00406
55892	0.00372
55903	0.0037
55913	0.00389
55924	0.00423
55937	0.00469
55948	0.00513
55959	0.00554
55969	0.00594
55979	0.0063
55990	0.00664
56000	0.00695
56011	0.00714
56021	0.00711
56031	0.0066
56042	0.00552
56052	0.00438
56062	0.00364
56073	0.00338
56083	0.00348
56094	0.00379
56105	0.00419
56117	0.0047
56129	0.00516
56140	0.00556
56151	0.00588
56162	0.00609
56173	0.00615
56185	0.00591
56195	0.00543
56205	0.00481
56216	0.00424
56226	0.00391
56237	0.00385
56247	0.00398
56258	0.00427
56270	0.00467
56282	0.0051
56293	0.00548
56304	0.00588
56315	0.00624
56325	0.00657
56336	0.00683
56347	0.00696
56357	0.00678
56367	0.00614
56378	0.00512
56388	0.00417
56398	0.00361
56409	0.00347
56419	0.00362
56430	0.00397
56441	0.00441
56454	0.00492
56464	0.00533
56475	0.00571
56485	0.00604
56496	0.00632
56506	0.00647
56518	0.00638
56529	0.00593
56539	0.00515
56549	0.00439
56559	0.00388
56570	0.00368
56581	0.00377
56592	0.00404
56603	0.00442
56616	0.00491
56626	0.00532
56636	0.00571
56647	0.00609
56657	0.00645
56668	0.00678
56678	0.00704
56688	0.00715
56699	0.00694
56709	0.0062
56719	0.00507
56730	0.004
56740	0.00347
56751	0.0034
56761	0.0036
56772	0.00397
56784	0.00443
56794	0.00484
56805	0.00528
56815	0.00562
56826	0.00592
56836	0.00612
56848	0.00616
56859	0.0059
56870	0.00533
56881	0.00466
56891	0.00414
56902	0.00387
56912	0.00386
56923	0.00403
56933	0.00432
56944	0.00468
56956	0.00511
56966	0.00548
56977	0.00588
56988	0.00624
56998	0.00658
57009	0.00685
57020	0.00699
57030	0.00684
57041	0.00623
57051	0.00521
57062	0.00416
57072	0.00358
57083	0.00345
57093	0.00362
57105	0.00398
57116	0.00442
57129	0.00495
57139	0.00535
57149	0.00572
57160	0.00604
57171	0.00631
57181	0.00642
57192	0.0063
57203	0.00581
57213	0.00504
57223	0.00433
57234	0.00386
57244	0.00371
57255	0.00381
57266	0.00409
57276	0.00444
57289	0.00492
57299	0.00533
57310	0.00571
57320	0.0061
57330	0.00645
57341	0.00679
57351	0.00706
57361	0.0072
57372	0.00702
57382	0.00632
57393	0.0051
57404	0.00402
57414	0.00347
57424	0.00337
57435	0.00357
57446	0.00393
57456	0.00436
57469	0.00486
57480	0.0053
57490	0.00564
57501	0.00592
57512	0.00609
57524	0.00607
57534	0.00579
57545	0.00523
57555	0.00459
57566	0.00411
57576	0.00389
57586	0.0039
57597	0.00408
57608	0.00439
57620	0.00478
57632	0.00521
57643	0.0056
57653	0.00596
57664	0.0063
57674	0.0066
57684	0.00681
57695	0.00686
57706	0.00654
57717	0.00569
57727	0.0047
57737	0.00392
57747	0.00354
57758	0.00354
57769	0.00377
57779	0.00413
57790	0.00457
57801	0.00501
57813	0.00547
57823	0.00584
57833	0.00618
57844	0.00646
57855	0.00663
57865	0.00657
57876	0.00611
57886	0.00532
57897	0.00443
57907	0.00382
57917	0.00361
57927	0.00368
57939	0.00395
57949	0.00431
57960	0.00475
57971	0.00519
57983	0.00563
57993	0.006
58004	0.00637
58014	0.00667
58025	0.00688
58035	0.00687
58046	0.00647
58056	0.0056
58067	0.00453
58077	0.00379
58087	0.0035
58098	0.00355
58109	0.00383
58120	0.00423
58131	0.00464
58142	0.00509
58153	0.00552
58163	0.00587
58173	0.00618
58184	0.00641
58195	0.00648
58207	0.00623
58218	0.00558
58228	0.00474
58239	0.00407
58249	0.00372
58260	0.0037
58270	0.00389
58281	0.00422
58294	0.00468
58305	0.00512
58316	0.00553
58326	0.00594
58336	0.0063
58347	0.00664
58357	0.00694
58368	0.00714
58378	0.0071
58389	0.00659
58399	0.0055
58410	0.00436
58420	0.00363
58430	0.00338
58441	0.00349
58452	0.0038
58462	0.00421
58472	0.00463
58484	0.00509
58496	0.00552
58507	0.00585
58518	0.00608
58529	0.00616
58540	0.00598
58551	0.00552
58561	0.00488
58572	0.00428
58583	0.00392
58593	0.00385
58603	0.00396
58614	0.00422
58625	0.00458
58636	0.00498
58646	0.00536
58657	0.00574
58668	0.00611
58678	0.00644
58688	0.00673
58699	0.00693
58709	0.00693
58720	0.00653
58730	0.00566
58740	0.00458
58751	0.0038
58761	0.00348
58772	0.00352
58783	0.0038
58793	0.00419
58806	0.00469
58817	0.00514
58828	0.00554
58838	0.00589
58848	0.00619
58859	0.00641
58869	0.00645
58879	0.00622
58889	0.00567
58899	0.0049
58910	0.00417
58921	0.00376
58931	0.0037
58942	0.00385
58952	0.00414
58963	0.00453
58974	0.00494
58984	0.00535
58994	0.00573
59004	0.00611
59014	0.00646
59025	0.00679
59035	0.00705
59046	0.00717
59056	0.00695
59067	0.00621
59077	0.00499
59088	0.00395
59098	0.00345
59109	0.00339
59119	0.0036
59130	0.00399
59142	0.00445
59152	0.00487
59163	0.0053
59173	0.00564
59184	0.00593
59195	0.00611
59205	0.00613
59217	0.00585
59228	0.00528
59239	0.00463
59249	0.00413
59260	0.00387
59270	0.00388
59281	0.00407
59292	0.00438
59303	0.00477
59315	0.0052
59326	0.00559
59337	0.00596
59347	0.0063
59358	0.00661
59368	0.00686
59378	0.00694
59389	0.00668
59399	0.00597
59409	0.00495
59420	0.00401
59430	0.00355
59440	0.00348
59451	0.00369
59462	0.00404
59472	0.00443
59485	0.00495
59495	0.00535
59505	0.00573
59516	0.00608
59527	0.00636
59537	0.0065
59549	0.00641
59559	0.00596
59570	0.00518
59581	0.00435
59591	0.00382
59602	0.00366
59613	0.00379
59624	0.00408
59634	0.00444
59647	0.00493
59657	0.00534
59667	0.00572
59678	0.0061
59688	0.00645
59699	0.00678
59709	0.00703
59720	0.00711
59730	0.00685
59740	0.00606
59750	0.00493
59760	0.00398
59771	0.00347
59781	0.00341
59791	0.00362
59803	0.004
59814	0.00447
59825	0.00489
59836	0.00531
59847	0.0057
59858	0.006
59868	0.00618
59880	0.00619
59891	0.0059
59901	0.00532
59912	0.00464
59922	0.00412
59933	0.00384
59943	0.00384
59953	0.00401
59963	0.0043
59974	0.00464
59985	0.00507
59996	0.00547
60007	0.00587
60018	0.00624
60028	0.00658
60039	0.00687
60049	0.00705
60059	0.00701
60069	0.00656
60080	0.00558
60090	0.00443
60101	0.00368
60111	0.00342
60121	0.0035
60132	0.0038
60143	0.0042
60155	0.00471
60167	0.00517
60178	0.00556
60188	0.00589
60199	0.00616
60210	0.0063
60220	0.00622
60230	0.00583
60241	0.00516
60252	0.00444
60263	0.00395
60273	0.00377
60283	0.00384
60294	0.00409
60306	0.00446
60316	0.00483
60327	0.00526
60338	0.00567
60349	0.00607
60360	0.00643
60370	0.00676
60381	0.00704
60391	0.00718
60401	0.00704
60412	0.00638
60422	0.00526
60432	0.00411
60443	0.0035
60453	0.00337
60464	0.00355
60475	0.0039
60485	0.0043
60496	0.00477
60508	0.00522
60518	0.00559
60529	0.0059
60540	0.0061
60550	0.00614
60562	0.00592
60572	0.00544
60582	0.00482
60593	0.00425
60604	0.00391
60614	0.00386
60624	0.00399
60635	0.00427
60647	0.00467
60659	0.0051
60670	0.00548
60681	0.00588
60692	0.00624
60702	0.00657
60713	0.00683
60723	0.00694
60733	0.00678
60744	0.00616
60754	0.00514
60764	0.00418
60775	0.00362
60785	0.00347
60795	0.00361
60806	0.00393
60817	0.00434
60828	0.00482
60839	0.00526
60850	0.00567
60861	0.00601
60871	0.00631
60882	0.00648
60892	0.00647
60903	0.00612
60913	0.00544
60923	0.00462
60934	0.00399
60944	0.00369
60955	0.0037
60966	0.00393
60977	0.0043
60988	0.00472
60999	0.00516
61010	0.00556
61020	0.00595
61030	0.00631
61041	0.00664
61051	0.00692
61061	0.0071
61072	0.00703
61083	0.00643
61093	0.00533
61104	0.00423
61114	0.00358
61124	0.00339
61135	0.00353
61145	0.00385
61157	0.00429
61168	0.00474
61179	0.00519
61190	0.00558
61200	0.00589
61211	0.00612
61221	0.00621
61233	0.00604
61244	0.00558
61254	0.00493
61265	0.0043
61275	0.00391
61286	0.00382
61297	0.00396
61308	0.00424
61320	0.00464
61332	0.00507
61343	0.00547
61354	0.00587
61364	0.00624
61375	0.00658
61385	0.00686
61395	0.00704
61406	0.007
61416	0.00653
61427	0.00555
61437	0.0044
61448	0.00366
61458	0.00342
61468	0.00351
61479	0.00382
61490	0.00424
61501	0.00467
61512	0.00512
61523	0.00553
61534	0.00588
61545	0.00616
61555	0.0063
61567	0.00622
61577	0.00584
61588	0.00516
61599	0.00444
61609	0.00395
61620	0.00377
61630	0.00383
61641	0.00408
61652	0.00445
61665	0.00493
61676	0.00533
61686	0.00572
61697	0.0061
61707	0.00645
61717	0.00678
61728	0.00705
61738	0.00719
61748	0.00704
61759	0.00636
61769	0.00523
61779	0.0041
61790	0.0035
61800	0.00337
61811	0.00355
61821	0.00389
61832	0.0043
61843	0.00476
61854	0.00521
61865	0.00559
61876	0.00589
61887	0.00609
61897	0.00612
61909	0.00588
61919	0.0054
61929	0.00479
61940	0.00423
61951	0.00391
61961	0.00387
61971	0.00401
61983	0.00431
61993	0.00465
62005	0.00507
62016	0.00547
62027	0.00587
62038	0.00623
62048	0.00653
62059	0.0068
62069	0.00692
62080	0.00676
62090	0.00614
62101	0.00512
62111	0.00417
62121	0.00362
62131	0.00348
62142	0.00363
62153	0.00398
62164	0.00441
62177	0.00492
62187	0.00533
62198	0.00571
62209	0.00608
62219	0.00636
62229	0.00653
62239	0.00651
62250	0.00618
62260	0.0055
62270	0.00466
62280	0.004
62291	0.00368
62301	0.00367
62311	0.00387
62322	0.00422
62334	0.00468
62346	0.00512
62356	0.00553
62367	0.00594
62377	0.00629
62388	0.00663
62398	0.0069
62408	0.00705
62419	0.00693
62429	0.00635
62439	0.00525
62450	0.00418
62460	0.00358
62471	0.00342
62482	0.00358
62492	0.00392
62503	0.00433
62515	0.00481
62526	0.00525
62536	0.00561
62546	0.00592
62557	0.00618
62568	0.0063
62579	0.00617
62589	0.00574
62599	0.00507
62610	0.00438
62620	0.00392
62631	0.00377
62641	0.00386
62653	0.00414
62663	0.00448
62673	0.00485
62685	0.00528
62695	0.00568
62706	0.00607
62717	0.00643
62727	0.00677
62737	0.00704
62748	0.00719
62759	0.00701
62769	0.00631
62779	0.00518
62790	0.00407
62800	0.00349
62811	0.00337
62821	0.00356
62832	0.00392
62843	0.00435
62855	0.00484
62866	0.00528
62876	0.00562
62887	0.00592
62898	0.00611
62908	0.00612
62920	0.00585
62931	0.00528
62942	0.00463
62952	0.00413
62963	0.00388
62974	0.00388
62985	0.00408
62996	0.00438
63007	0.00478
63019	0.00521
63030	0.0056
63040	0.00596
63051	0.0063
63061	0.00661
63072	0.00685
63082	0.00692
63092	0.00668
63102	0.00598
63112	0.00496
63123	0.00407
63133	0.00358
63143	0.00348
63154	0.00367
63164	0.004
63176	0.00445
63186	0.00487
63197	0.00529
63207	0.00569
63217	0.00603
63228	0.00632
63238	0.0065
63248	0.00651
63259	0.00621
63269	0.00555
63279	0.0047
63290	0.00403
63300	0.00369
63310	0.00367
63321	0.00387
63332	0.0042
63344	0.00465
63355	0.0051
63366	0.00552
63377	0.00592
63387	0.00629
63397	0.00662
63407	0.0069
63417	0.00706
63428	0.00697
63439	0.00643
63449	0.00533
63460	0.00424
63470	0.00359
63480	0.00341
63491	0.00354
63501	0.00385
63513	0.00429
63524	0.00475
63535	0.0052
63546	0.00558
63556	0.0059
63566	0.00614
63577	0.00626
63588	0.00614
63599	0.00572
63609	0.00505
63620	0.00437
63631	0.00393
63641	0.00379
63652	0.00389
63662	0.00413
63672	0.00446
63685	0.00492
63696	0.00534
63706	0.00572
63717	0.00609
63727	0.00644
63738	0.00677
63748	0.00703
63758	0.00715
63769	0.00695
63779	0.00622
63789	0.00509
63800	0.00402
63810	0.00348
63821	0.0034
63831	0.0036
63842	0.00397
63854	0.00442
63867	0.00495
63877	0.00535
63888	0.00572
63899	0.00601
63910	0.00618
63920	0.00616
63931	0.00586
63942	0.00528
63952	0.00461
63962	0.00411
63973	0.00385
63983	0.00385
63994	0.00404
64005	0.00434
64016	0.00471
64027	0.00515
64039	0.00556
64049	0.00594
64060	0.00629
64070	0.00662
64080	0.00688
64091	0.00703
64101	0.00689
64111	0.0063
64122	0.00529
64132	0.00421
64143	0.00359
64153	0.00343
64163	0.00357
64174	0.00389
64184	0.00428
64195	0.00474
64206	0.00519
64217	0.00557
64227	0.0059
64237	0.00618
64248	0.00635
64258	0.00632
64268	0.00602
64279	0.00535
64290	0.00457
64301	0.004
64311	0.00376
64322	0.00378
64332	0.004
64343	0.00432
64354	0.00473
64365	0.00516
64376	0.00556
64386	0.00595
64396	0.00631
64406	0.00665
64417	0.00696
64427	0.00717
64437	0.00719
64448	0.00679
64458	0.00585
64468	0.00464
64478	0.00376
64488	0.00339
64499	0.00341
64510	0.00368
64520	0.00408
64531	0.00452
64542	0.00496
64553	0.00537
64564	0.00572
64574	0.00597
64586	0.0061
64597	0.00601
64607	0.00568
64617	0.00511
64627	0.00451
64638	0.00407
64648	0.00389
64659	0.00392
64670	0.00414
64682	0.00449
64692	0.00484
64704	0.00527
64714	0.00563
64725	0.00598
64735	0.00631
64746	0.00661
64756	0.00681
64766	0.00682
64777	0.00646
64788	0.00559
64798	0.00461
64808	0.00388
64818	0.00354
64829	0.00355
64840	0.0038
64850	0.00417
64862	0.00464
64873	0.00509
64884	0.00551
64895	0.00592
64906	0.00626
64916	0.00653
64926	0.00668
64938	0.00659
64948	0.00607
64959	0.00517
64969	0.00431
64979	0.00376
64990	0.00358
65000	0.00367
65011	0.00397
65022	0.00436
65034	0.00483
65044	0.00526
65055	0.00567
65066	0.00606
65077	0.00641
65087	0.00668
65098	0.00681
65109	0.00667
65119	0.00612
65129	0.00521
65140	0.00425
65150	0.00368
65161	0.00352
65172	0.00367
65182	0.00397
65193	0.00438
65205	0.00487
65216	0.00529
65226	0.00569
65237	0.00607
65248	0.00637
65258	0.00658
65269	0.00662
65279	0.00632
65289	0.00566
65300	0.00479
65310	0.00406
65320	0.00367
65331	0.00362
65341	0.0038
65351	0.0041
65361	0.00449
65372	0.0049
65382	0.00532
65392	0.00571
65403	0.00609
65413	0.00644
65423	0.00672
65434	0.00692
65444	0.00688
65455	0.00643
65466	0.00545
65476	0.00441
65487	0.00372
65497	0.00347
65507	0.00355
65518	0.00383
65528	0.00422
65539	0.00463
65550	0.00509
65561	0.00551
65571	0.00587
65582	0.00618
65593	0.00639
65603	0.00643
65614	0.00619
65624	0.00563
65634	0.00487
65645	0.00415
65655	0.00378
65665	0.0037
65675	0.00385
65685	0.00413
65696	0.0045
65707	0.00491
65717	0.00532
65727	0.00571
65738	0.0061
65748	0.00645
65759	0.00679
65769	0.00706
65779	0.00721
65790	0.00704
65800	0.00634
65811	0.00512
65822	0.00403
65832	0.00347
65842	0.00336
65853	0.00356
65863	0.00391
65874	0.00433
65886	0.00481
65897	0.00526
65908	0.00561
65919	0.00591
65930	0.00609
65941	0.00606
65952	0.00579
65963	0.00523
65973	0.00459
65984	0.00412
65994	0.0039
66004	0.0039
66015	0.00409
66026	0.00439
66038	0.00478
66050	0.00521
66061	0.0056
66071	0.00596
66082	0.0063
66092	0.0066
66103	0.00681
66113	0.00685
66123	0.00654
66133	0.0058
66144	0.0048
66154	0.00398
66164	0.00357
66175	0.00353
66186	0.00375
66197	0.00413
66208	0.00458
66219	0.00503
66231	0.00547
66241	0.00585
66251	0.00618
66262	0.00647
66272	0.00665
66283	0.0066
66294	0.00614
66304	0.00535
66315	0.00444
66325	0.00383
66335	0.0036
66346	0.00367
66357	0.00396
66368	0.00433
66379	0.00478
66390	0.00521
66402	0.00565
66412	0.00601
66422	0.00634
66432	0.00664
66442	0.00683
66453	0.00682
66464	0.00639
66474	0.00551
66485	0.00447
66496	0.00376
66506	0.00351
66516	0.00357
66526	0.00384
66537	0.00423
66547	0.00463
66559	0.00508
66570	0.00551
66580	0.00587
66590	0.00619
66600	0.00643
66611	0.00656
66622	0.00641
66632	0.00592
66642	0.00513
66653	0.0043
66664	0.00379
66674	0.00364
66685	0.00377
66696	0.00407
66708	0.00451
66719	0.00492
66729	0.00533
66739	0.00572
66750	0.0061
66760	0.00645
66771	0.00677
66781	0.007
66791	0.00705
66802	0.00669
66813	0.00576
66823	0.00465
66833	0.00383
66843	0.00345
66854	0.00346
66864	0.0037
66875	0.00409
66886	0.00452
66897	0.00496
66907	0.00536
66918	0.00573
66928	0.00603
66939	0.00624
66950	0.00626
66960	0.00603
66971	0.00547
66982	0.00475
66992	0.00417
67002	0.00384
67013	0.00379
67023	0.00395
67034	0.00426
67047	0.00469
67058	0.00512
67070	0.00554
67080	0.00594
67091	0.00629
67101	0.00663
67112	0.00694
67122	0.00714
67133	0.00711
67144	0.00659
67154	0.0055
67164	0.00436
67174	0.00363
67185	0.00338
67196	0.00348
67206	0.0038
67217	0.00422
67227	0.00464
67239	0.0051
67251	0.00552
67262	0.00586
67273	0.00609
67284	0.00616
67295	0.00599
67305	0.00553
67316	0.00489
67326	0.00428
67337	0.00392
67347	0.00384
67359	0.00398
67370	0.00426
67382	0.00466
67394	0.00508
67404	0.00547
67414	0.00583
67425	0.0062
67435	0.00652
67446	0.0068
67457	0.00696
67467	0.00687
67478	0.00632
67488	0.00531
67498	0.0043
67508	0.00367
67519	0.00346
67529	0.00357
67539	0.00386
67551	0.00429
67562	0.00475
67573	0.0052
67583	0.00558
67594	0.00595
67605	0.00623
67615	0.00642
67626	0.00642
67637	0.00609
67648	0.00541
67658	0.0046
67668	0.00399
67679	0.00371
67690	0.00374
67700	0.00394
67712	0.00432
67723	0.00473
67734	0.00517
67744	0.00556
67755	0.00595
67765	0.00631
67775	0.00665
67786	0.00696
67796	0.00715
67807	0.00711
67817	0.00658
67828	0.0055
67838	0.00435
67849	0.0036
67859	0.00337
67870	0.00349
67881	0.00382
67892	0.00425
67902	0.00469
67914	0.00515
67926	0.00555
67937	0.00587
67948	0.00608
67958	0.00613
67969	0.00593
67980	0.00546
67990	0.00484
68001	0.00426
68011	0.00392
68022	0.00386
68032	0.00399
68043	0.00427
68055	0.00466
68067	0.00509
68078	0.00547
68088	0.00583
68098	0.00617
68108	0.00649
68118	0.00675
68129	0.00692
68140	0.00681
68151	0.00625
68161	0.00524
68171	0.00426
68182	0.00366
68192	0.00348
68202	0.0036
68213	0.00391
68223	0.00429
68234	0.00474
68245	0.00519
68255	0.00557
68266	0.00595
68277	0.00627
68287	0.00648
68298	0.00653
68310	0.00623
68320	0.00557
68331	0.00472
68341	0.00404
68351	0.0037
68361	0.00367
68372	0.00386
68383	0.00419
68394	0.00463
68406	0.00507
68417	0.0055
68428	0.00591
68438	0.00628
68448	0.00662
68459	0.00689
68469	0.00706
68480	0.00697
68490	0.00643
68500	0.00542
68510	0.00431
68521	0.00362
68531	0.00341
68541	0.00353
68551	0.00382
68562	0.00423
68573	0.00465
68584	0.00511
68595	0.00553
68606	0.00587
68616	0.00612
68627	0.00626
68638	0.00619
68648	0.00582
68659	0.00515
68670	0.00444
68681	0.00396
68691	0.00379
68702	0.00386
68713	0.00412
68723	0.00444
68736	0.0049
68747	0.00532
68758	0.00571
68768	0.00609
68778	0.00644
68789	0.00677
68799	0.00703
68810	0.00715
68821	0.00693
68831	0.00619
68842	0.00496
68852	0.00394
68863	0.00345
68873	0.0034
68883	0.0036
68894	0.00398
68905	0.00443
68916	0.00485
68927	0.00528
68937	0.00563
68947	0.00592
68958	0.00613
68969	0.00618
68980	0.00595
68990	0.00547
69000	0.00484
69011	0.00425
69021	0.0039
69031	0.00383
69043	0.00398
69054	0.00427
69066	0.00469
69078	0.00512
69088	0.00549
69099	0.00589
69110	0.00625
69121	0.00658
69131	0.00686
69141	0.00701
69152	0.00689
69162	0.00632
69172	0.00531
69183	0.00423
69194	0.0036
69204	0.00344
69214	0.00358
69225	0.0039
69235	0.0043
69247	0.00476
69258	0.0052
69268	0.00558
69279	0.00595
69290	0.00622
69300	0.00637
69310	0.00634
69321	0.00596
69332	0.00528
69342	0.00451
69353	0.00396
69363	0.00374
69374	0.00378
69384	0.00401
69395	0.00435
69406	0.00477
69418	0.0052
69428	0.00558
69438	0.00597
69449	0.00635
69460	0.00671
69470	0.007
69480	0.0072
69491	0.00714
69502	0.0066
69512	0.00551
69523	0.00429
69533	0.00357
69543	0.00335
69554	0.00348
69565	0.00381
69576	0.00424
69586	0.00467
69598	0.00513
69610	0.00554
69621	0.00586
69632	0.00606
69643	0.00608
69653	0.00587
69664	0.00539
69674	0.00479
69685	0.00424
69695	0.00394
69705	0.00388
69715	0.00401
69727	0.00429
69739	0.00469
69751	0.00512
69762	0.00549
69773	0.00588
69784	0.00624
69794	0.00653
69804	0.00676
69815	0.00684
69825	0.0066
69836	0.0059
69846	0.00489
69857	0.00404
69867	0.00359
69878	0.00353
69888	0.00373
69899	0.00409
69910	0.00451
69921	0.00495
69931	0.00535
69941	0.00572
69952	0.00609
69962	0.00642
69973	0.00663
69983	0.00669
69994	0.00642
70005	0.00568
70016	0.00472
70026	0.00396
70036	0.00362
70047	0.0036
70057	0.0038
70067	0.00413
70078	0.00455
70089	0.00498
70101	0.00544
70111	0.00583
70122	0.00621
70132	0.00651
70143	0.00674
70153	0.0068
70164	0.00652
70174	0.00578
70185	0.00479
70195	0.00398
70205	0.00358
70216	0.00355
70227	0.00378
70237	0.00412
70248	0.00455
70259	0.00498
70271	0.00545
70282	0.00583
70292	0.00617
70303	0.00646
70313	0.00663
70324	0.00657
70335	0.00608
70346	0.00529
70356	0.0044
70367	0.00381
70377	0.0036
70387	0.00368
70398	0.00396
70409	0.00433
70420	0.00478
70431	0.00522
70442	0.00565
70453	0.00605
70464	0.00641
70474	0.0067
70485	0.00689
70496	0.00686
70506	0.00639
70517	0.0055
70527	0.00445
70537	0.00375
70547	0.00349
70558	0.00356
70568	0.00383
70579	0.00422
70589	0.00463
70601	0.00508
70612	0.00551
70622	0.00587
70633	0.00618
70643	0.00641
70654	0.00647
70665	0.00626
70675	0.00572
70685	0.00494
70695	0.00419
70706	0.00377
70716	0.00368
70726	0.00382
70737	0.0041
70747	0.00446
70757	0.00485
70768	0.00527
70779	0.00568
70789	0.00608
70800	0.00644
70810	0.00677
70820	0.00704
70831	0.00717
70842	0.00698
70852	0.00626
70862	0.00513
70872	0.00404
70883	0.00348
70893	0.00338
70904	0.00359
70915	0.00396
70926	0.0044
70939	0.00492
70950	0.00534
70961	0.00571
70972	0.00597
70982	0.00613
70994	0.0061
71005	0.00574
71016	0.00517
71026	0.00454
71036	0.00408
71047	0.00386
71058	0.0039
71069	0.00412
71080	0.00447
71093	0.00492
71104	0.00529
71114	0.00567
71125	0.00605
71136	0.0064
71146	0.00669
71157	0.0069
71168	0.00691
71178	0.00652
71188	0.00566
71199	0.00458
71209	0.0038
71220	0.00348
71231	0.00354
71242	0.00383
71253	0.00423
71263	0.00465
71275	0.00511
71285	0.00552
71296	0.00588
71306	0.00619
71316	0.00642
71327	0.0065
71338	0.00628
71349	0.00565
71360	0.00479
71371	0.00409
71381	0.00372
71391	0.00368
71402	0.00386
71412	0.00417
71424	0.00458
71435	0.00501
71447	0.00547
71457	0.00585
71467	0.00623
71478	0.00658
71488	0.00688
71499	0.00709
71509	0.00708
71520	0.00662
71530	0.00565
71540	0.00448
71551	0.00369
71561	0.0034
71571	0.00347
71582	0.00375
71592	0.00413
71603	0.00459
71614	0.00505
71624	0.00542
71635	0.00576
71646	0.00604
71656	0.00619
71666	0.00617
71678	0.00584
71688	0.00527
71698	0.0046
71708	0.00409
71719	0.00384
71729	0.00385
71740	0.00404
71750	0.00434
71761	0.00471
71773	0.00515
71785	0.00557
71795	0.00594
71805	0.00629
71816	0.00662
71826	0.00689
71836	0.00705
71846	0.00697
71856	0.00645
71866	0.00545
71877	0.00433
71888	0.00363
71898	0.00342
71908	0.00353
71918	0.00382
71929	0.00424
71940	0.00467
71951	0.00513
71962	0.00554
71973	0.00588
71984	0.00616
71995	0.00631
72006	0.00623
72016	0.00585
72027	0.00518
72038	0.00445
72048	0.00395
72059	0.00377
72069	0.00383
72080	0.00407
72091	0.00444
72104	0.0049
72115	0.00532
72125	0.00571
72136	0.00609
72146	0.00645
72156	0.00678
72167	0.00705
72177	0.00719
72188	0.00701
72198	0.00631
72209	0.00508
72220	0.00401
72230	0.00346
72241	0.00337
72251	0.00359
72262	0.00396
72274	0.00441
72286	0.00494
72297	0.00535
72309	0.00571
72319	0.00597
72330	0.00612
72342	0.00606
72353	0.00566
72363	0.0051
72373	0.00449
72384	0.00405
72395	0.00386
72405	0.00392
72416	0.00413
72427	0.00448
72437	0.00483
72449	0.00526
72460	0.00562
72470	0.00598
72480	0.00631
72491	0.00662
72501	0.00685
72512	0.00689
72523	0.00657
72533	0.00574
72544	0.00465
72555	0.00384
72565	0.00351
72576	0.00354
72587	0.0038
72597	0.00417
72609	0.00465
72620	0.0051
72631	0.00552
72641	0.00588
72651	0.0062
72661	0.00644
72671	0.00657
72683	0.00645
72693	0.00597
72703	0.00518
72714	0.00434
72724	0.0038
72735	0.00364
72745	0.00375
72756	0.00403
72768	0.00444
72780	0.00494
72791	0.00534
72802	0.00577
72812	0.00614
72822	0.00648
72833	0.00679
72843	0.00699
72854	0.00698
72864	0.00657
72875	0.00561
72885	0.00453
72895	0.00377
72905	0.00345
72915	0.00349
72926	0.00376
72936	0.00412
72947	0.00458
72958	0.00502
72970	0.00548
72981	0.00584
72992	0.00614
73003	0.00631
73013	0.0063
73024	0.006
73034	0.00542
73044	0.0047
73055	0.00408
73065	0.00379
73076	0.00378
73086	0.00396
73097	0.0043
73108	0.00468
73120	0.00512
73131	0.00553
73141	0.00593
73152	0.00629
73162	0.00664
73172	0.00695
73183	0.00717
73193	0.0072
73203	0.00684
73213	0.00591
73223	0.00469
73233	0.00379
73243	0.00339
73254	0.0034
73265	0.00366
73275	0.00404
73285	0.00446
73296	0.00488
73307	0.00531
73317	0.00564
73328	0.00592
73339	0.00609
73351	0.00603
73361	0.00572
73372	0.00516
73383	0.00454
73393	0.00409
73403	0.00389
73414	0.00392
73425	0.00412
73437	0.00445
73449	0.00489
73460	0.00526
73471	0.00565
73481	0.006
73491	0.00632
73502	0.00662
73512	0.00681
73522	0.00681
73534	0.0064
73544	0.00553
73554	0.00456
73564	0.00385
73575	0.00354
73585	0.00356
73595	0.0038
73605	0.00415
73617	0.00462
73628	0.00506
73639	0.0055
73649	0.00587
73660	0.00623
73671	0.00651
73681	0.00668
73691	0.00664
73702	0.00621
73712	0.00542
73723	0.00449
73733	0.00384
73743	0.00359
73754	0.00364
73764	0.00389
73776	0.0043
73787	0.00473
73798	0.00517
73808	0.00557
73819	0.00595
73829	0.0063
73840	0.0066
73851	0.00678
73862	0.00673
73872	0.00629
73883	0.0054
73894	0.00439
73904	0.00374
73915	0.00353
73926	0.00364
73936	0.00394
73947	0.00432
73958	0.00479
73969	0.00522
73981	0.00565
73991	0.00601
74001	0.00632
74012	0.00656
74023	0.00665
74033	0.00646
74043	0.00585
74054	0.00495
74064	0.00417
74074	0.00371
74085	0.0036
74095	0.00375
74106	0.00408
74116	0.00445
74126	0.00485
74137	0.00528
74148	0.00568
74159	0.00607
74169	0.00642
74180	0.0067
74190	0.00688
74200	0.00683
74211	0.00634
74221	0.00545
74232	0.00441
74242	0.00373
74252	0.00349
74262	0.00356
74272	0.00383
74283	0.00422
74293	0.00462
74305	0.00507
74316	0.00551
74326	0.00587
74337	0.00618
74347	0.00642
74358	0.0065
74369	0.00629
74379	0.00575
74389	0.00497
74400	0.0042
74410	0.00376
74421	0.00367
74432	0.00383
74442	0.00411
74452	0.00448
74463	0.00488
74473	0.0053
74484	0.0057
74494	0.00609
74504	0.00645
74515	0.00678
74526	0.00704
74536	0.00714
74546	0.00691
74557	0.00615
74567	0.00502
74577	0.00398
74588	0.00346
74598	0.0034
74608	0.00359
74619	0.00396
74630	0.00441
74643	0.00492
74654	0.00534
74665	0.00571
74676	0.00601
74687	0.00617
74697	0.00614
74709	0.0058
74719	0.00523
74730	0.00458
74740	0.00409
74751	0.00385
74761	0.00387
74772	0.00407
74783	0.00439
74794	0.00479
74806	0.00522
74817	0.00561
74827	0.00597
74837	0.00631
74848	0.00663
74858	0.00689
74869	0.00701
74879	0.00684
74889	0.00621
74900	0.0051
74910	0.00409
74921	0.00355
74931	0.00345
74942	0.00364
74952	0.00397
74963	0.0044
74976	0.00492
74986	0.00533
74997	0.00571
75007	0.00603
75017	0.00627
75028	0.00639
75039	0.00627
75050	0.00578
75061	0.00501
75071	0.00431
75081	0.00386
75091	0.00372
75102	0.00382
75113	0.00409
75125	0.0045
75135	0.00489
75146	0.00531
75156	0.0057
75167	0.00609
75177	0.00645
75188	0.00678
75198	0.00706
75208	0.00721
75219	0.00707
75229	0.00641
75240	0.0052
75250	0.00408
75261	0.00349
75271	0.00336
75281	0.00353
75292	0.00387
75303	0.00433
75315	0.00482
75327	0.00526
75337	0.00562
75348	0.0059
75360	0.00608
75371	0.00605
75381	0.00577
75392	0.0052
75403	0.00457
75413	0.00411
75423	0.0039
75434	0.00391
75445	0.0041
75456	0.00442
75468	0.00483
75480	0.00525
75491	0.00562
75501	0.00598
75511	0.00631
75522	0.00661
75532	0.0068
75543	0.00682
75554	0.00646
75565	0.0056
75575	0.00462
75585	0.00388
75595	0.00354
75605	0.00355
75616	0.0038
75627	0.00416
75639	0.00464
75650	0.00509
75661	0.00551
75672	0.00592
75682	0.00626
75693	0.00653
75703	0.00668
75714	0.00659
75725	0.00607
75736	0.00518
75746	0.00431
75756	0.00376
75766	0.00358
75776	0.00367
75788	0.00397
75798	0.00436
75810	0.00482
75821	0.00525
75832	0.00567
75843	0.00606
75854	0.00641
75864	0.00668
75875	0.00681
75886	0.00667
75896	0.00612
75906	0.00521
75916	0.00425
75927	0.00368
75938	0.00352
75948	0.00367
75959	0.00397
75970	0.00438
75982	0.00488
75993	0.0053
76003	0.0057
76014	0.00607
76024	0.00637
76035	0.00658
76045	0.00662
76056	0.00632
76066	0.00566
76076	0.00479
76086	0.00406
76097	0.00367
76107	0.00362
76117	0.0038
76127	0.0041
76138	0.00449
76148	0.0049
76159	0.00531
76169	0.00571
76180	0.00609
76190	0.00644
76200	0.00672
76211	0.00691
76221	0.00688
76232	0.00641
76243	0.00543
76253	0.00439
76264	0.00371
76274	0.00347
76284	0.00356
76295	0.00384
76306	0.00424
76316	0.00466
76327	0.00512
76338	0.00553
76348	0.00588
76359	0.00619
76370	0.0064
76380	0.00644
76391	0.00619
76402	0.00554
76413	0.00471
76423	0.00406
76434	0.00373
76445	0.00372
76455	0.00393
76467	0.00429
76478	0.00468
76489	0.00512
76500	0.00554
76510	0.00594
76521	0.0063
76531	0.00664
76541	0.00695
76552	0.00716
76562	0.00717
76573	0.00672
76583	0.00567
76593	0.00449
76604	0.00365
76614	0.00337
76625	0.00344
76635	0.00372
76646	0.00415
76658	0.00464
76670	0.0051
76682	0.00552
76693	0.00585
76704	0.00607
76715	0.0061
76727	0.00585
76737	0.00537
76747	0.00477
76758	0.00422
76768	0.00393
76778	0.00388
76788	0.00401
76800	0.00429
76812	0.0047
76824	0.00512
76835	0.0055
76846	0.00589
76857	0.00624
76867	0.00654
76877	0.00677
76887	0.00687
76899	0.00663
76909	0.00593
76919	0.00492
76930	0.00405
76940	0.00359
76951	0.00351
76961	0.0037
76972	0.00405
76982	0.00444
76992	0.00484
77002	0.00527
77013	0.00568
77024	0.00606
77034	0.00636
77045	0.00658
77055	0.00664
77066	0.00639
77076	0.00575
77086	0.00486
77096	0.00411
77106	0.00369
77117	0.00361
77128	0.00379
77139	0.00414
77150	0.00456
77161	0.00499
77173	0.00546
77183	0.00584
77194	0.00622
77204	0.00653
77214	0.00678
77225	0.0069
77235	0.00672
77246	0.00607
77256	0.00505
77266	0.00413
77277	0.00361
77287	0.00349
77298	0.00365
77308	0.00396
77319	0.00438
77331	0.00488
77342	0.0053
77352	0.0057
77363	0.00603
77373	0.00632
77384	0.00649
77394	0.00645
77405	0.00607
77415	0.00539
77425	0.00457
77436	0.00397
77446	0.00369
77457	0.00371
77468	0.00395
77478	0.00428
77489	0.00468
77500	0.00512
77511	0.00553
77521	0.00594
77531	0.0063
77542	0.00664
77552	0.00692
77562	0.00712
77573	0.00708
77583	0.00655
77594	0.00547
77604	0.00433
77614	0.00362
77625	0.00339
77635	0.00349
77646	0.0038
77657	0.00421
77667	0.00463
77678	0.00508
77690	0.00551
77701	0.00586
77712	0.00609
77723	0.00619
77733	0.00606
77744	0.00563
77755	0.00498
77765	0.00434
77776	0.00394
77787	0.00383
77798	0.00396
77809	0.00423
77821	0.00461
77832	0.00503
77844	0.00545
77854	0.00581
77864	0.00616
77874	0.00649
77885	0.00679
77895	0.00698
77905	0.00697
77916	0.00656
77926	0.00559
77937	0.00451
77947	0.00376
77957	0.00345
77967	0.0035
77978	0.00378
77989	0.00416
78000	0.00464
78012	0.0051
78023	0.00552
78033	0.00587
78044	0.00617
78054	0.00635
78065	0.00635
78077	0.00601
78088	0.00533
78098	0.00455
78109	0.00399
78119	0.00375
78130	0.00378
78140	0.00399
78151	0.00431
78162	0.00471
78173	0.00515
78184	0.00555
78194	0.00595
78204	0.00631
78214	0.00665
78225	0.00696
78235	0.00717
78245	0.00719
78256	0.00679
78266	0.00585
78276	0.00464
78286	0.00376
78296	0.00339
78307	0.00341
78318	0.00368
78328	0.00408
78339	0.00451
78350	0.00495
78361	0.00536
78372	0.00572
78383	0.00597
78393	0.00609
78403	0.00604
78413	0.00575
78424	0.00518
78435	0.00456
78445	0.0041
78455	0.0039
78466	0.00391
78477	0.00411
78488	0.00443
78500	0.00485
78511	0.00523
78522	0.00563
78533	0.00598
78543	0.00631
78554	0.00661
78564	0.00681
78574	0.00681
78585	0.00643
78596	0.00556
78606	0.00459
78616	0.00386
78627	0.00354
78637	0.00356
78648	0.00381
78658	0.00419
78671	0.00468
78682	0.00513
78692	0.00553
78703	0.00593
78714	0.00627
78724	0.00654
78734	0.00669
78746	0.00659
78756	0.00608
78767	0.00518
78777	0.00431
78787	0.00376
78797	0.00358
78808	0.00367
78819	0.00396
78829	0.00434
78841	0.0048
78852	0.00524
78863	0.00566
78874	0.00605
78885	0.0064
78896	0.00667
78906	0.0068
78917	0.00664
78927	0.00607
78938	0.00507
78949	0.00416
78959	0.00364
78970	0.00353
78980	0.00369
78991	0.00401
79002	0.00444
79012	0.00485
79023	0.00527
79034	0.00568
79044	0.00603
79054	0.00634
79065	0.00657
79076	0.00665
79086	0.00642
79096	0.00579
79107	0.0049
79117	0.00413
79127	0.00369
79137	0.0036
79148	0.00377
79159	0.00411
79170	0.00451
79181	0.00494
79191	0.00534
79201	0.00572
79212	0.0061
79222	0.00644
79232	0.00672
79242	0.00689
79253	0.00682
79264	0.0063
79275	0.00531
79285	0.00431
79295	0.00368
79306	0.00349
79316	0.00359
79326	0.00388
79338	0.00431
79349	0.00477
79360	0.00522
79371	0.00559
79381	0.00596
79391	0.00625
79402	0.00645
79412	0.00648
79422	0.00624
79433	0.0056
79444	0.00475
79454	0.00407
79465	0.00372
79475	0.00369
79486	0.00388
79497	0.00421
79509	0.00465
79520	0.00509
79531	0.00552
79542	0.00593
79552	0.00629
79562	0.00663
79573	0.00694
79584	0.00713
79594	0.00709
79605	0.00656
79615	0.00547
79625	0.00433
79636	0.00362
79646	0.00338
79656	0.00348
79667	0.00379
79677	0.00419
79690	0.0047
79701	0.00516
79713	0.00556
79723	0.00588
79734	0.0061
79745	0.00617
79756	0.00597
79767	0.00551
79777	0.00487
79788	0.00427
79798	0.00392
79809	0.00384
79820	0.00398
79831	0.00426
79843	0.00467
79855	0.0051
79865	0.00548
79877	0.00588
79887	0.00624
79898	0.00658
79909	0.00685
79919	0.00699
79930	0.00683
79940	0.00622
79950	0.0052
79961	0.00416
79972	0.00358
79983	0.00345
79993	0.00363
80004	0.00399
80016	0.00444
80026	0.00485
80037	0.00528
80048	0.00568
80058	0.00602
80068	0.00627
80079	0.00642
80090	0.00634
80101	0.0059
80112	0.00513
80122	0.00439
80132	0.00389
80142	0.00371
80153	0.00379
80164	0.00405
80175	0.00443
80188	0.00491
80199	0.00532
80209	0.00571
80219	0.0061
80230	0.00645
80240	0.00679
80250	0.00706
80261	0.0072
80272	0.00702
80282	0.00631
80293	0.00508
80303	0.00401
80314	0.00346
80324	0.00337
80335	0.00357
80345	0.00394
80356	0.00438
80369	0.00489
80380	0.00532
80390	0.00565
80401	0.00593
80412	0.0061
80423	0.00607
80433	0.00579
80444	0.00522
80455	0.00458
80465	0.00411
80476	0.00388
80487	0.00391
80498	0.00412
80510	0.00445
80523	0.00489
80533	0.00526
80544	0.00565
80554	0.006
80564	0.00633
80575	0.00663
80585	0.00683
80596	0.00685
80607	0.00648
80617	0.00562
80628	0.00455
80639	0.0038
80649	0.00351
80659	0.00356
80669	0.0038
80680	0.00416
80692	0.00464
80703	0.00509
80714	0.00551
80725	0.00592
80736	0.00626
80746	0.00651
80757	0.00663
80769	0.00643
80779	0.00583
80790	0.00494
80800	0.00416
80810	0.00371
80821	0.00361
80832	0.00378
80843	0.00411
80853	0.00451
80864	0.00492
80874	0.00533
80884	0.00572
80895	0.0061
80905	0.00644
80916	0.00672
80926	0.00691
80937	0.00686
80948	0.00636
80958	0.00537
80969	0.00435
80979	0.0037
80990	0.00347
81000	0.00358
81010	0.00387
81022	0.0043
81033	0.00475
81044	0.0052
81055	0.00558
81066	0.00595
81076	0.00624
81086	0.00643
81097	0.00643
81108	0.00612
81118	0.00545
81129	0.00463
81139	0.00401
81150	0.00371
81161	0.00373
81172	0.00396
81182	0.00428
81193	0.00467
81204	0.00511
81215	0.00553
81226	0.00593
81236	0.0063
81246	0.00664
81256	0.00695
81267	0.00716
81277	0.00714
81288	0.00667
81299	0.0056
81309	0.00444
81319	0.00366
81329	0.00337
81339	0.00345
81350	0.00373
81361	0.00416
81373	0.00464
81384	0.0051
81396	0.00552
81408	0.00585
81419	0.00607
81429	0.00612
81441	0.00591
81451	0.00544
81461	0.00482
81472	0.00425
81482	0.00394
81492	0.00386
81502	0.00398
81513	0.00424
81525	0.00461
81537	0.00503
81547	0.00539
81557	0.00576
81568	0.00612
81578	0.00645
81588	0.00672
81598	0.00688
81609	0.00683
81620	0.00633
81630	0.00543
81641	0.0044
81651	0.00372
81661	0.00349
81672	0.00358
81682	0.00385
81693	0.00427
81704	0.00471
81715	0.00516
81725	0.00555
81736	0.00594
81747	0.00627
81758	0.00651
81768	0.00658
81779	0.00637
81790	0.00575
81800	0.00487
81811	0.00413
81821	0.00371
81832	0.00364
81842	0.0038
81853	0.00414
81864	0.00455
81875	0.00498
81887	0.00545
81898	0.00584
81908	0.00622
81919	0.00656
81930	0.00684
81940	0.00699
81951	0.00685
81961	0.00624
81971	0.00523
81982	0.00418
81993	0.00358
82003	0.00345
82014	0.00361
82025	0.00395
82035	0.00437
82048	0.00487
82059	0.0053
82070	0.00569
82080	0.00602
82091	0.00626
82101	0.00637
82113	0.00622
82124	0.0057
82134	0.00494
82145	0.00427
82155	0.00385
82165	0.00374
82176	0.00385
82186	0.00411
82196	0.00444
82209	0.00493
82219	0.00533
82230	0.00572
82240	0.0061
82250	0.00646
82261	0.00679
82271	0.00707
82281	0.00723
82291	0.00712
82302	0.00649
82312	0.00538
82322	0.0042
82332	0.00353
82342	0.00335
82353	0.00349
82364	0.00385
82376	0.0043
82387	0.00476
82399	0.00522
82410	0.00559
82421	0.00589
82431	0.00605
82443	0.00605
82453	0.00579
82463	0.00531
82473	0.00473
82484	0.0042
82494	0.00394
82504	0.0039
82515	0.00404
82525	0.0043
82535	0.00462
82547	0.00503
82557	0.00539
82568	0.00576
82578	0.00611
82589	0.00643
82600	0.00669
82610	0.0068
82622	0.00662
82633	0.00595
82643	0.00494
82654	0.00407
82664	0.00361
82675	0.00355
82686	0.00375
82697	0.00411
82708	0.00454
82719	0.00498
82731	0.00544
82741	0.00583
82752	0.00621
82762	0.00651
82773	0.00673
82783	0.00677
82795	0.00643
82805	0.00567
82815	0.00469
82825	0.00393
82836	0.00357
82846	0.00357
82857	0.0038
82867	0.00415
82879	0.0046
82890	0.00505
82901	0.00549
82912	0.00586
82922	0.00619
82932	0.00648
82943	0.00664
82954	0.00658
82965	0.00611
82975	0.00532
82985	0.00442
82996	0.00382
83006	0.0036
83016	0.00367
83027	0.00394
83037	0.00429
83048	0.00472
83060	0.00517
83070	0.00556
83080	0.00595
83091	0.0063
83101	0.00662
83111	0.00683
83122	0.00687
83133	0.00654
83144	0.0057
83154	0.00462
83165	0.00383
83175	0.00352
83186	0.00354
83197	0.00381
83207	0.00418
83220	0.00467
83231	0.00512
83242	0.00553
83252	0.00588
83262	0.00619
83272	0.00643
83283	0.00651
83294	0.00631
83305	0.00568
83316	0.00482
83327	0.00411
83337	0.00373
83347	0.00367
83358	0.00384
83368	0.00414
83379	0.00454
83390	0.00496
83400	0.00536
83411	0.00578
83421	0.00615
83431	0.00649
83442	0.00681
83452	0.00705
83463	0.00712
83473	0.00681
83484	0.00592
83494	0.0047
83505	0.0038
83515	0.00342
83526	0.00344
83537	0.00371
83548	0.00412
83559	0.00459
83571	0.00504
83581	0.00542
83591	0.00576
83602	0.00604
83613	0.00619
83623	0.00615
83634	0.0058
83645	0.00522
83655	0.00457
83665	0.00408
83676	0.00384
83686	0.00386
83697	0.00406
83708	0.00437
83719	0.00478
83731	0.00521
83742	0.0056
83752	0.00596
83762	0.00631
83772	0.00663
83783	0.0069
83793	0.00704
83804	0.0069
83814	0.00631
83825	0.0052
83835	0.00415
83845	0.00357
83856	0.00343
83866	0.00358
83877	0.00392
83887	0.00432
83899	0.0048
83910	0.00524
83920	0.0056
83931	0.00596
83942	0.00622
83952	0.00634
83964	0.00621
83975	0.00571
83986	0.00496
83997	0.00429
84007	0.00387
84017	0.00375
84028	0.00386
84038	0.00412
84048	0.00446
84058	0.00483
84069	0.00526
84081	0.00567
84091	0.00607
84102	0.00643
84112	0.00677
84122	0.00705
84133	0.00721
84143	0.00708
84154	0.00645
84164	0.00533
84174	0.00416
84185	0.00352
84195	0.00336
84205	0.00351
84216	0.00386
84228	0.00432
84240	0.0048
84251	0.00525
84262	0.00561
84273	0.0059
84284	0.00609
84295	0.00607
84305	0.00582
84317	0.00525
84328	0.00461
84338	0.00413
84348	0.0039
84358	0.0039
84369	0.00408
84380	0.00437
84391	0.00475
84404	0.00518
84415	0.00558
84425	0.00595
84436	0.00629
84447	0.00659
84457	0.00681
84468	0.00685
84478	0.00652
84489	0.00568
84499	0.00468
84509	0.00391
84520	0.00355
84531	0.00354
84541	0.00379
84552	0.00415
84563	0.00461
84574	0.00505
84586	0.00549
84596	0.00586
84606	0.00619
84616	0.00648
84627	0.00664
84638	0.00657
84649	0.00608
84660	0.00519
84670	0.00433
84681	0.00378
84691	0.0036
84701	0.00369
84711	0.00395
84722	0.00432
84733	0.00477
84744	0.00521
84756	0.00564
84766	0.00601
84776	0.00634
84786	0.00664
84796	0.00684
84807	0.00685
84817	0.00647
84828	0.00561
84839	0.00455
84849	0.0038
84860	0.00351
84870	0.00355
84881	0.00382
84891	0.0042
84904	0.00469
84915	0.00514
84925	0.00555
84937	0.00593
84948	0.00626
84958	0.00647
84969	0.00652
84980	0.00624
84991	0.00558
85001	0.00472
85012	0.00405
85022	0.0037
85032	0.00367
85043	0.00386
85053	0.00419
85065	0.00463
85076	0.00507
85088	0.0055
85099	0.00591
85109	0.00628
85119	0.00662
85129	0.0069
85140	0.00709
85151	0.007
85162	0.0064
85172	0.00529
85183	0.00421
85193	0.00358
85203	0.0034
85213	0.00353
85224	0.00384
85235	0.00427
85246	0.00472
85257	0.00517
85268	0.00556
85279	0.00589
85289	0.00612
85299	0.00623
85311	0.00611
85321	0.00568
85332	0.00502
85343	0.00436
85353	0.00393
85364	0.00381
85375	0.00392
85385	0.00417
85396	0.00452
85407	0.0049
85418	0.00532
85428	0.00571
85439	0.00609
85449	0.00644
85460	0.00676
85471	0.00701
85481	0.00709
85491	0.00684
85502	0.00606
85512	0.00493
85522	0.00398
85532	0.00349
85542	0.00341
85552	0.00361
85564	0.00398
85575	0.00443
85585	0.00484
85596	0.00527
85608	0.00568
85619	0.006
85630	0.00621
85640	0.00625
85651	0.00604
85662	0.00548
85672	0.00476
85683	0.00418
85693	0.00385
85704	0.0038
85714	0.00396
85725	0.00426
85738	0.0047
85750	0.00513
85761	0.00555
85771	0.00593
85782	0.00629
85792	0.00663
85802	0.00691
85812	0.00711
85823	0.00708
85833	0.00659
85844	0.00551
85855	0.00437
85865	0.00364
85875	0.00339
85885	0.00348
85896	0.00379
85907	0.00419
85919	0.0047
85930	0.00516
85942	0.00555
85952	0.00588
85963	0.00611
85973	0.00621
85985	0.00605
85995	0.0056
86006	0.00495
86017	0.00432
86027	0.00392
86038	0.00382
86049	0.00395
86060	0.00423
86072	0.00461
86083	0.00503
86095	0.00545
86106	0.00585
86116	0.00622
86127	0.00657
86137	0.00685
86148	0.00703
86158	0.00699
86168	0.00652
86179	0.00553
86189	0.00439
86200	0.00366
86210	0.00342
86221	0.00352
86232	0.00384
86243	0.00426
86254	0.00471
86265	0.00516
86276	0.00556
86286	0.00589
86297	0.00617
86308	0.00632
86319	0.00624
86329	0.00587
86340	0.00519
86351	0.00446
86361	0.00395
86372	0.00376
86382	0.00382
86392	0.00406
86404	0.00442
86416	0.00487
86427	0.00529
86438	0.00569
86449	0.00608
86459	0.00644
86469	0.00677
86480	0.00705
86490	0.0072
86501	0.00704
86511	0.00637
86521	0.00524
86532	0.0041
86542	0.0035
86553	0.00336
86563	0.00354
86573	0.00387
86583	0.00427
86594	0.00472
86606	0.00518
86617	0.00557
86628	0.00588
86639	0.00608
86650	0.00611
86662	0.00586
86672	0.00537
86682	0.00477
86692	0.00422
86703	0.00391
86714	0.00387
86724	0.00402
86734	0.00428
86747	0.00469
86759	0.00512
86769	0.00549
86780	0.00588
86791	0.00624
86801	0.00654
86811	0.00678
86821	0.00689
86832	0.00672
86843	0.00606
86853	0.00505
86863	0.00413
86874	0.00361
86884	0.0035
86895	0.00367
86905	0.00399
86917	0.00444
86927	0.00485
86937	0.00527
86948	0.00568
86958	0.00602
86969	0.00633
86979	0.00655
86990	0.00658
87001	0.00628
87011	0.00562
87021	0.00475
87032	0.00405
87042	0.00368
87053	0.00364
87063	0.00383
87073	0.00415
87085	0.00458
87096	0.00501
87107	0.00547
87117	0.00585
87128	0.00623
87139	0.00657
87149	0.00684
87160	0.00697
87170	0.00682
87181	0.0062
87191	0.00519
87202	0.00415
87212	0.00358
87223	0.00346
87234	0.00363
87245	0.004
87256	0.00445
87267	0.00486
87277	0.00529
87288	0.00569
87299	0.00602
87309	0.00627
87319	0.00639
87330	0.0063
87341	0.00584
87352	0.00507
87363	0.00435
87373	0.00388
87383	0.00372
87393	0.0038
87404	0.00406
87415	0.00444
87428	0.00492
87439	0.00533
87449	0.00572
87460	0.0061
87470	0.00646
87480	0.00679
87490	0.00707
87501	0.00723
87511	0.00711
87521	0.00648
87532	0.00527
87543	0.00413
87553	0.0035
87563	0.00335
87573	0.0035
87584	0.00385
87595	0.00431
87607	0.00478
87619	0.00523
87630	0.0056
87641	0.00589
87651	0.00605
87662	0.00605
87673	0.00579
87683	0.00531
87693	0.00472
87703	0.0042
87714	0.00394
87724	0.0039
87735	0.00405
87745	0.00431
87755	0.00463
87767	0.00504
87777	0.0054
87787	0.00576
87798	0.00611
87809	0.00643
87819	0.00669
87830	0.00681
87841	0.00662
87852	0.00595
87863	0.00494
87873	0.00407
87884	0.00361
87895	0.00355
87905	0.00375
87917	0.00411
87928	0.00454
87938	0.00498
87950	0.00544
87961	0.00583
87972	0.00621
87982	0.00651
87992	0.00673
88003	0.00677
88014	0.00642
88024	0.00566
88035	0.00468
88045	0.00393
88055	0.00357
88066	0.00357
88077	0.00381
88087	0.00416
88099	0.00461
88110	0.00506
88121	0.00549
88131	0.00586
88141	0.00619
88152	0.00648
88162	0.00665
88173	0.00659
88184	0.00612
88194	0.00532
88205	0.00442
88215	0.00382
88226	0.0036
88236	0.00366
88247	0.00393
88257	0.00429
88268	0.00471
88279	0.00515
88289	0.00555
88300	0.00595
88310	0.0063
88321	0.00661
88331	0.00683
88342	0.00687
88352	0.00653
88363	0.00569
88374	0.00461
88385	0.00383
88395	0.00352
88405	0.00355
88416	0.00382
88427	0.0042
88440	0.00469
88451	0.00514
88461	0.00555
88473	0.00593
88483	0.00623
88493	0.00645
88504	0.00651
88515	0.00626
88526	0.00561
88537	0.00475
88547	0.00407
88558	0.00371
88568	0.00368
88578	0.00386
88589	0.00418
88600	0.00461
88611	0.00505
88623	0.00549
88634	0.00591
88644	0.00627
88655	0.00662
88665	0.0069
88675	0.0071
88686	0.00705
88697	0.0065
88708	0.00541
88718	0.00429
88728	0.00361
88739	0.00339
88749	0.00352
88760	0.00385
88772	0.00429
88783	0.00476
88794	0.00521
88805	0.00559
88816	0.0059
88826	0.00613
88837	0.00621
88847	0.00608
88857	0.00564
88868	0.00499
88879	0.00434
88889	0.00393
88900	0.00382
88911	0.00394
88922	0.00421
88933	0.00457
88944	0.00498
88955	0.00535
88965	0.00574
88976	0.00611
88986	0.00645
88997	0.00677
89007	0.00699
89017	0.00705
89028	0.00672
89038	0.0059
89048	0.00478
89058	0.0039
89069	0.00347
89079	0.00345
89090	0.00369
89101	0.00407
89111	0.00449
89122	0.00492
89132	0.00533
89143	0.00571
89154	0.00603
89165	0.00625
89176	0.0063
89188	0.00605
89198	0.00548
89209	0.00476
89219	0.00416
89229	0.00383
89240	0.00378
89251	0.00395
89262	0.00428
89272	0.00463
89284	0.00506
89295	0.0055
89305	0.00587
89316	0.00624
89326	0.00659
89336	0.00689
89346	0.00713
89357	0.00718
89367	0.00687
89377	0.00598
89388	0.00476
89398	0.00382
89408	0.00341
89418	0.0034
89429	0.00364
89439	0.004
89451	0.00448
89461	0.0049
89472	0.00532
89484	0.0057
89494	0.00596
89505	0.00612
89516	0.00607
89528	0.0057
89538	0.00513
89549	0.00451
89559	0.00407
89570	0.00386
89581	0.00391
89592	0.00414
89602	0.00444
89615	0.00488
89625	0.00525
89636	0.00565
89646	0.006
89656	0.00633
89667	0.00663
89677	0.00686
89688	0.0069
89699	0.00658
89709	0.00574
89720	0.00465
89731	0.00384
89741	0.00351
89751	0.00353
89762	0.00379
89773	0.00416
89784	0.00463
89796	0.00508
89807	0.00551
89817	0.00587
89827	0.00619
89837	0.00643
89847	0.00655
89859	0.00641
89869	0.00592
89879	0.00513
89890	0.0043
89900	0.00379
89911	0.00364
89922	0.00377
89933	0.00407
89945	0.00451
89955	0.00492
89966	0.00533
89976	0.00571
89986	0.0061
89997	0.00645
90007	0.00677
90018	0.00699
90028	0.00703
90038	0.00669
90049	0.00586
90059	0.00475
90069	0.00388
90079	0.00347
90090	0.00346
90100	0.00368
90111	0.00405
90121	0.00446
90131	0.00488
90142	0.00531
90153	0.0057
90164	0.00601
90175	0.00624
90185	0.0063
90196	0.0061
90207	0.00555
90218	0.00482
90228	0.0042
90238	0.00385
90249	0.00378
90260	0.00394
90271	0.00424
90283	0.00466
90295	0.0051
90306	0.00552
90317	0.00593
90327	0.00629
90337	0.00663
90348	0.00694
90358	0.00715
90369	0.00716
90379	0.00673
90389	0.00578
90400	0.00458
90410	0.00373
90420	0.00339
90430	0.00342
90441	0.0037
90452	0.00411
90463	0.00457
90475	0.00502
90485	0.00541
90496	0.00575
90507	0.00602
90518	0.00613
90529	0.00603
90540	0.0056
90551	0.00496
90562	0.00434
90572	0.00398
90582	0.00386
90593	0.00395
90604	0.0042
90615	0.00453
90626	0.00491
90636	0.00527
90646	0.00566
90656	0.00601
90667	0.00633
90677	0.00664
90688	0.00686
90699	0.00688
90709	0.00653
90720	0.00568
90731	0.0046
90741	0.00382
90751	0.00351
90762	0.00354
90773	0.00382
90784	0.00421
90794	0.00461
90805	0.00506
90816	0.0055
90827	0.00586
90837	0.00618
90847	0.00643
90857	0.00656
90868	0.00646
90878	0.006
90888	0.00521
90899	0.00435
90910	0.00381
90920	0.00364
90931	0.00374
90941	0.00402
90953	0.00442
90965	0.00491
90976	0.00532
90986	0.00571
90997	0.00609
91007	0.00644
91018	0.00676
91028	0.00697
91038	0.007
91049	0.00661
91060	0.00565
91070	0.00457
91080	0.00379
91091	0.00345
91101	0.00348
91111	0.00374
91123	0.00415
91134	0.00462
91146	0.00508
91157	0.00551
91168	0.00586
91179	0.00615
91189	0.00631
91200	0.00628
91211	0.00595
91222	0.00528
91232	0.00452
91243	0.00398
91253	0.00377
91264	0.00382
91275	0.00405
91286	0.00441
91299	0.00486
91310	0.00528
91321	0.00569
91331	0.00608
91342	0.00644
91352	0.00677
91362	0.00705
91373	0.00721
91383	0.0071
91394	0.00646
91404	0.00535
91414	0.00417
91425	0.00352
91435	0.00335
91445	0.0035
91456	0.00384
91467	0.00429
91479	0.00476
91490	0.00521
91501	0.00559
91512	0.00589
91524	0.00608
91535	0.00607
91545	0.00582
91555	0.00533
91566	0.00467
91577	0.00417
91587	0.00392
91597	0.00389
91608	0.00405
91618	0.00432
91629	0.00466
91641	0.00509
91651	0.00547
91662	0.00583
91672	0.00616
91682	0.00648
91692	0.00673
91703	0.00685
91714	0.00669
91725	0.00604
91735	0.00503
91746	0.00412
91756	0.00362
91767	0.00352
91777	0.00368
91787	0.00401
91799	0.00445
91809	0.00486
91820	0.00529
91830	0.00569
91841	0.00607
91851	0.00637
91861	0.0066
91872	0.00668
91884	0.00642
91894	0.00578
91904	0.00489
91914	0.00407
91925	0.00366
91935	0.00359
91946	0.00378
91957	0.00413
91968	0.00455
91979	0.00498
91991	0.00545
92001	0.00584
92012	0.00621
92022	0.00652
92033	0.00675
92043	0.00682
92053	0.00658
92064	0.00587
92074	0.00487
92085	0.00403
92095	0.00359
92106	0.00354
92116	0.00374
92127	0.0041
92138	0.00452
92149	0.00495
92159	0.00535
92169	0.00573
92180	0.00609
92190	0.00638
92201	0.00658
92212	0.00659
92223	0.00622
92234	0.00544
92244	0.00453
92255	0.00388
92265	0.00363
92275	0.00367
92286	0.00392
92298	0.00431
92309	0.00475
92320	0.00519
92332	0.00563
92342	0.006
92353	0.00637
92363	0.00668
92374	0.0069
92384	0.00694
92394	0.00662
92405	0.00579
92415	0.00469
92426	0.00386
92436	0.00349
92447	0.0035
92457	0.00375
92469	0.00416
92480	0.00463
92492	0.00508
92503	0.00551
92514	0.00587
92524	0.00617
92535	0.00638
92546	0.00639
92557	0.00608
92568	0.00541
92579	0.0046
92589	0.00401
92599	0.00374
92610	0.00375
92621	0.00397
92631	0.00429
92642	0.00468
92654	0.00512
92664	0.00554
92675	0.00594
92685	0.0063
92695	0.00664
92706	0.00696
92716	0.00718
92726	0.00721
92736	0.00684
92747	0.00592
92757	0.0047
92767	0.00379
92777	0.00338
92788	0.0034
92799	0.00368
92810	0.00407
92820	0.00451
92831	0.00495
92842	0.00536
92854	0.00572
92864	0.00596
92874	0.00608
92885	0.00601
92895	0.0057
92906	0.00513
92916	0.00453
92927	0.00409
92937	0.0039
92948	0.00393
92959	0.00414
92971	0.00448
92981	0.00483
92993	0.00526
93003	0.00562
93014	0.00598
93024	0.00631
93035	0.0066
93045	0.00679
93056	0.00677
93066	0.0064
93077	0.00553
93087	0.00457
93097	0.00386
93108	0.00355
93118	0.00358
93128	0.00382
93139	0.00419
93151	0.00467
93162	0.00512
93173	0.00553
93184	0.00593
93194	0.00628
93204	0.00656
93215	0.00674
93225	0.0067
93236	0.00627
93247	0.00539
93257	0.00446
93267	0.00382
93278	0.00356
93288	0.00363
93299	0.0039
93311	0.00432
93322	0.00477
93333	0.00521
93345	0.00564
93355	0.006
93365	0.00633
93375	0.00658
93386	0.00671
93396	0.00658
93407	0.00604
93417	0.00514
93427	0.00429
93437	0.00374
93447	0.00357
93458	0.00367
93469	0.00397
93480	0.00437
93492	0.00484
93502	0.00527
93513	0.00568
93524	0.00607
93535	0.00641
93545	0.00668
93556	0.00681
93567	0.00664
93578	0.00598
93589	0.00498
93599	0.0041
93610	0.00362
93621	0.00354
93631	0.00371
93642	0.00405
93652	0.00444
93665	0.00495
93675	0.00535
93685	0.00573
93696	0.0061
93706	0.00639
93716	0.00659
93727	0.00662
93738	0.0063
93749	0.00555
93760	0.00461
93770	0.00391
93781	0.00363
93791	0.00365
93802	0.00389
93813	0.00428
93824	0.00469
93835	0.00514
93846	0.00555
93857	0.00594
93867	0.0063
93877	0.00662
93888	0.00686
93899	0.00691
93909	0.00662
93920	0.00581
93931	0.00471
93941	0.00387
93952	0.0035
93963	0.00352
93973	0.00378
93983	0.00413
93995	0.00458
94006	0.00503
94018	0.00548
94028	0.00585
94039	0.00617
94049	0.0064
94059	0.00647
94071	0.00624
94081	0.00569
94091	0.00492
94102	0.00418
94113	0.00376
94123	0.00369
94133	0.00384
94143	0.00413
94154	0.0045
94165	0.00491
94175	0.00532
94185	0.00571
94196	0.0061
94206	0.00645
94217	0.00679
94227	0.00706
94238	0.00719
94248	0.00701
94258	0.0063
94269	0.00507
94279	0.004
94290	0.00346
94300	0.00338
94311	0.00359
94322	0.00397
94333	0.00442
94346	0.00495
94357	0.00536
94368	0.00572
94379	0.00597
94390	0.00612
94402	0.00605
94413	0.00564
94424	0.005
94434	0.00442
94444	0.00402
94455	0.00386
94466	0.00394
94477	0.00417
94487	0.00449
94498	0.00485
94509	0.00527
94519	0.00563
94530	0.00599
94540	0.00632
94550	0.00663
94561	0.00685
94572	0.00689
94582	0.00656
94593	0.00572
94604	0.00463
94615	0.00383
94625	0.00351
94636	0.00354
94646	0.0038
94657	0.00418
94669	0.00467
94680	0.00512
94691	0.00554
94702	0.00593
94713	0.00626
94724	0.0065
94735	0.00656
94746	0.00632
94756	0.00567
94767	0.00481
94777	0.00409
94788	0.0037
94798	0.00365
94809	0.00384
94819	0.00415
94830	0.00456
94841	0.00499
94853	0.00546
94863	0.00584
94874	0.00622
94885	0.00657
94895	0.00685
94906	0.00702
94916	0.00693
94926	0.00639
94936	0.00539
94947	0.00429
94958	0.00362
94968	0.00343
94979	0.00357
94989	0.00388
95001	0.00434
95013	0.00482
95024	0.00526
95036	0.00567
95046	0.006
95057	0.00624
95068	0.00633
95079	0.00616
95090	0.00563
95101	0.00488
95111	0.00424
95121	0.00385
95132	0.00376
95143	0.0039
95153	0.00418
95164	0.00455
95175	0.00497
95186	0.00536
95196	0.00574
95206	0.00611
95216	0.00646
95227	0.0068
95237	0.00707
95247	0.00722
95258	0.00706
95268	0.00637
95279	0.00515
95289	0.00405
95300	0.00347
95310	0.00336
95320	0.00355
95331	0.00389
95341	0.0043
95353	0.00477
95364	0.00522
95375	0.00559
95386	0.00589
95397	0.00608
95409	0.00607
95419	0.00581
95430	0.00525
95441	0.00461
95452	0.00413
95462	0.0039
95472	0.0039
95483	0.00408
95494	0.00438
95505	0.00476
95517	0.00519
95528	0.00559
95539	0.00595
95549	0.00629
95560	0.0066
95570	0.0068
95581	0.00684
95591	0.00652
95601	0.00578
95612	0.00477
95622	0.00397
95632	0.00356
95643	0.00354
95654	0.00376
95664	0.0041
95675	0.00453
95685	0.00496
95697	0.00544
95708	0.00583
95718	0.00617
95729	0.00647
95739	0.00665
95749	0.00664
95760	0.00627
95771	0.00549
95781	0.00455
95792	0.00388
95802	0.0036
95813	0.00364
95823	0.00388
95835	0.00427
95845	0.00469
95856	0.00513
95867	0.00554
95878	0.00594
95888	0.00629
95899	0.0066
95909	0.0068
95920	0.0068
95931	0.00639
95942	0.00552
95952	0.00448
95963	0.00377
95974	0.00352
95984	0.00359
95994	0.00386
96005	0.00426
96016	0.00468
96027	0.00513
96038	0.00554
96049	0.00593
96060	0.00626
96071	0.00651
96081	0.0066
96091	0.00643
96102	0.00584
96113	0.00496
96123	0.00418
96133	0.00372
96144	0.00363
96155	0.00379
96166	0.00413
96177	0.00453
96188	0.00495
96198	0.00535
96209	0.00578
96219	0.00614
96230	0.00648
96240	0.00678
96251	0.00697
96261	0.00693
96271	0.00647
96282	0.0055
96292	0.00444
96302	0.00373
96313	0.00345
96323	0.00353
96334	0.00383
96345	0.00425
96356	0.00467
96367	0.00513
96378	0.00554
96389	0.00588
96399	0.00617
96410	0.00635
96420	0.00635
96431	0.00603
96442	0.00535
96453	0.00457
96463	0.004
96474	0.00375
96484	0.00378
96495	0.00399
96505	0.00431
96516	0.0047
96527	0.00513
96538	0.00554
96549	0.00594
96559	0.0063
96569	0.00664
96580	0.00696
96590	0.00718
96600	0.00722
96610	0.00688
96620	0.00596
96630	0.00474
96640	0.00381
96651	0.00338
96661	0.00339
96672	0.00365
96682	0.00404
96693	0.00445
96703	0.00487
96714	0.0053
96725	0.00564
96736	0.00591
96746	0.00606
96758	0.00602
96768	0.00572
96779	0.00516
96790	0.00454
96800	0.0041
96810	0.0039
96821	0.00393
96832	0.00414
96844	0.00447
96857	0.00491
96867	0.00528
96878	0.00566
96888	0.00601
96899	0.00633
96909	0.00661
96920	0.00679
96931	0.00672
96941	0.00627
96952	0.00538
96962	0.00444
96972	0.0038
96983	0.00354
96993	0.00361
97004	0.00389
97016	0.00432
97027	0.00477
97038	0.00521
97049	0.00565
97059	0.00601
97069	0.00634
97080	0.00663
97091	0.00679
97101	0.0067
97111	0.00621
97122	0.00531
97133	0.00433
97143	0.00371
97154	0.00353
97165	0.00366
97176	0.00398
97187	0.0044
97200	0.0049
97210	0.00531
97221	0.00571
97232	0.00608
97242	0.00638
97252	0.00659
97262	0.00664
97273	0.00638
97283	0.00573
97293	0.00484
97303	0.0041
97314	0.00368
97324	0.00361
97335	0.00379
97345	0.0041
97355	0.00449
97366	0.0049
97376	0.00531
97387	0.00571
97397	0.00609
97408	0.00643
97418	0.00672
97428	0.00689
97439	0.00685
97449	0.00637
97459	0.00548
97470	0.00444
97480	0.00374
97490	0.00349
97500	0.00355
97510	0.0038
97521	0.00418
97533	0.00467
97544	0.00512
97555	0.00553
97565	0.00588
97576	0.00619
97586	0.00641
97597	0.00648
97608	0.00626
97618	0.00571
97628	0.00493
97638	0.00419
97649	0.00376
97659	0.00368
97669	0.00382
97679	0.0041
97690	0.00446
97700	0.00485
97711	0.00528
97721	0.00569
97732	0.00608
97742	0.00644
97753	0.00677
97763	0.00704
97774	0.00717
97785	0.00696
97795	0.00623
97806	0.005
97816	0.00396
97827	0.00346
97837	0.00339
97847	0.0036
97859	0.00399
97870	0.00445
97880	0.00487
97892	0.0053
97902	0.00564
97912	0.00593
97923	0.00612
97933	0.00614
97945	0.00587
97956	0.00531
97967	0.00464
97977	0.00414
97988	0.00387
97998	0.00387
98009	0.00406
98020	0.00435
98031	0.00473
98043	0.00516
98054	0.00557
98065	0.00594
98075	0.00629
98086	0.00661
98096	0.00686
98106	0.00695
98117	0.00674
98127	0.00607
98137	0.00505
98148	0.00406
98158	0.00357
98168	0.00347
98179	0.00365
98189	0.00397
98200	0.0044
98213	0.00491
98223	0.00532
98234	0.00571
98244	0.00604
98255	0.00632
98265	0.00648
98276	0.0064
98287	0.00596
98298	0.00518
98308	0.00441
98318	0.00389
98329	0.00368
98340	0.00376
98350	0.00402
98361	0.00439
98374	0.00486
98384	0.00528
98395	0.00569
98406	0.00608
98416	0.00644
98426	0.00677
98437	0.00703
98447	0.00715
98458	0.00694
98468	0.0062
98478	0.00507
98489	0.004
98499	0.00347
98510	0.0034
98520	0.0036
98531	0.00398
98543	0.00444
98553	0.00486
98564	0.00529
98574	0.00563
98585	0.00593
98595	0.00613
98607	0.00616
98618	0.00591
98629	0.00535
98640	0.00467
98650	0.00414
98661	0.00387
98671	0.00385
98682	0.00402
98692	0.00431
98702	0.00465
98714	0.00508
98725	0.00548
98736	0.00587
98747	0.00624
98757	0.00657
98768	0.00685
98778	0.007
98789	0.00688
98799	0.0063
98809	0.00529
98820	0.00422
98831	0.0036
98841	0.00344
98852	0.00359
98862	0.00392
98873	0.00433
98885	0.00481
98896	0.00525
98907	0.00567
98918	0.006
98928	0.00626
98938	0.0064
98949	0.00633
98960	0.0059
98970	0.00521
98980	0.00446
98991	0.00393
99001	0.00373
99012	0.00379
99022	0.00403
99033	0.00439
99045	0.00484
99056	0.00526
99067	0.00568
99078	0.00607
99088	0.00643
99099	0.00677
99109	0.00705
99120	0.00721
99130	0.00708
99140	0.00644
99150	0.00532
99161	0.00416
99171	0.00352
99182	0.00336
99192	0.0035
99203	0.00386
99214	0.00431
99226	0.00479
99238	0.00524
99248	0.0056
99259	0.0059
99271	0.00608
99282	0.00606
99292	0.0058
99303	0.00523
99314	0.0046
99325	0.00412
99335	0.0039
99345	0.0039
99356	0.00409
99367	0.00439
99379	0.00478
99391	0.00521
99402	0.0056
99412	0.00596
99423	0.00629
99433	0.0066
99444	0.0068
99454	0.00684
99465	0.00652
99475	0.00577
99485	0.00476
99495	0.00396
99505	0.00356
99516	0.00354
99527	0.00377
99537	0.00411
99548	0.00454
99559	0.00498
99571	0.00544
99581	0.00583
99591	0.00617
99602	0.00647
99612	0.00665
99623	0.00664
99633	0.00626
99644	0.00548
99654	0.00454
99665	0.00387
99675	0.0036
99686	0.00364
99696	0.00389
99708	0.00428
99718	0.0047
99730	0.00514
99740	0.00555
99751	0.00594
99761	0.00629
99772	0.0066
99782	0.0068
99793	0.0068
99804	0.00639
99815	0.00551
99826	0.00448
99836	0.00377
99847	0.00352
99857	0.00359
99867	0.00386
99879	0.00426
99889	0.00468
99900	0.00513
99911	0.00554
99922	0.00593
99933	0.00627
99944	0.00651
99954	0.0066
99964	0.00643
99975	0.00584
99986	0.00495
99996	0.00417
