Time/s	Absorbance (460 nm)
10.165	0.00475
21.003	0.00515
31.634	0.0057
43.947	0.0064
54.762	0.00699
65.343	0.0075
75.417	0.00791
85.521	0.00818
96.607	0.00822
108.24	0.00777
119.25	0.00685
130.15	0.00586
140.93	0.00526
151.84	0.00512
162.02	0.00533
172.25	0.00573
183.26	0.00626
194.64	0.00685
206.01	0.00743
216.43	0.00795
226.51	0.00841
236.81	0.00882
247.35	0.00911
257.48	0.00909
268.38	0.00843
278.4	0.0071
289.05	0.00563
299.61	0.00482
310.21	0.0047
321.06	0.00502
332.41	0.00559
344.93	0.00629
355.62	0.00688
366.87	0.00744
377.4	0.00788
387.84	0.00817
399.2	0.00822
410.74	0.00779
421.46	0.00692
432	0.00595
442.36	0.00531
452.65	0.00512
463.1	0.00527
473.78	0.00567
486.02	0.00626
497.06	0.00683
508.56	0.00742
519.33	0.00795
529.53	0.00841
539.97	0.00883
550.67	0.00911
561.11	0.00907
571.99	0.00835
582.55	0.00691
592.84	0.00553
603.01	0.0048
613.31	0.0047
623.94	0.00502
635.06	0.00557
647.19	0.00626
657.85	0.00685
669.32	0.00742
679.95	0.00786
690.44	0.00817
701.76	0.00823
713.25	0.00781
724	0.00695
734.52	0.00597
744.83	0.00532
755	0.00512
765.27	0.00526
775.61	0.00562
787.09	0.00616
798.05	0.00673
808.73	0.00728
819.29	0.00781
830.05	0.00831
840.75	0.00875
851.47	0.00907
862.34	0.00911
873.16	0.00852
883.18	0.00725
893.6	0.00577
903.87	0.00489
913.94	0.00468
924.86	0.00494
935.03	0.00542
945.22	0.00598
955.46	0.00656
967.09	0.00718
977.79	0.00767
988.67	0.00805
999.28	0.00824
1009.3	0.00813
1020.6	0.0075
1031.3	0.00653
1042.1	0.00562
1052.2	0.00518
1062.7	0.00515
1072.8	0.0054
1083.4	0.00584
1095.1	0.00642
1105.6	0.00697
1116	0.0075
1126.3	0.008
1136.3	0.00846
1146.6	0.00886
1157.4	0.00913
1168.2	0.00903
1178.9	0.00822
1189.3	0.00676
1199.4	0.00544
1209.5	0.00478
1219.8	0.00472
1230.6	0.00506
1242.2	0.00565
1252.5	0.00624
1263.2	0.00683
1273.2	0.00734
1284.3	0.00781
1294.8	0.00814
1305.9	0.00824
1317.1	0.00792
1327.2	0.00719
1338.1	0.00616
1348.5	0.00542
1358.6	0.00513
1369.6	0.00522
1381	0.00561
1392.2	0.00613
1403.1	0.00669
1414	0.00726
1424.7	0.00779
1435.6	0.0083
1446.3	0.00874
1457	0.00907
1467.8	0.00912
1478.6	0.00855
1488.7	0.00728
1499.1	0.00579
1509.4	0.0049
1519.4	0.00468
1530.3	0.00493
1540.3	0.00539
1552.5	0.00607
1563	0.00666
1574	0.00724
1584.4	0.0077
1595.2	0.00808
1605.9	0.00825
1616.2	0.00809
1627.2	0.00743
1637.7	0.00646
1648.5	0.00558
1658.6	0.00517
1669.1	0.00516
1679.4	0.00543
1690.3	0.0059
1702.7	0.00652
1712.8	0.00705
1723.9	0.00761
1734.6	0.00813
1745	0.00858
1755.2	0.00895
1765.3	0.00915
1775.7	0.00895
1786.2	0.00803
1796.3	0.00657
1806.4	0.00532
1816.4	0.00474
1826.9	0.00474
1837	0.00509
1847.3	0.00562
1857.3	0.00618
1868	0.00678
1878.3	0.00731
1889.6	0.00779
1900.2	0.00813
1911.1	0.00824
1922.2	0.00795
1932.4	0.00723
1942.5	0.00628
1953	0.00548
1963.1	0.00514
1973.9	0.00519
1984.7	0.00552
1994.9	0.00598
2005	0.00649
2015.3	0.00703
2026.5	0.0076
2037.3	0.00812
2047.8	0.00858
2057.9	0.00894
2068	0.00915
2078.4	0.00896
2088.9	0.00805
2099.1	0.00659
2109.1	0.00533
2119.1	0.00475
2129.6	0.00474
2139.7	0.00508
2149.9	0.0056
2162.3	0.0063
2172.9	0.00688
2184.1	0.00744
2194.6	0.00788
2205.1	0.00817
2216.5	0.00822
2228.1	0.00779
2238.7	0.00692
2249.1	0.00595
2259.4	0.00532
2269.6	0.00512
2279.9	0.00526
2290.3	0.00564
2301.9	0.00619
2312.9	0.00676
2323.4	0.0073
2333.8	0.00782
2344.6	0.00832
2355.3	0.00876
2366	0.00908
2376.9	0.00911
2387.7	0.0085
2398.5	0.0071
2408.8	0.00566
2419	0.00485
2429.1	0.00469
2439.3	0.00495
2449.5	0.00543
2459.8	0.006
2470.1	0.00658
2481.6	0.00719
2492.3	0.00767
2503.1	0.00806
2513.8	0.00824
2523.9	0.00812
2535.1	0.00749
2545.7	0.00651
2556.6	0.00562
2566.7	0.00518
2577.2	0.00515
2587.3	0.00541
2597.9	0.00585
2609.7	0.00644
2620.2	0.00698
2630.4	0.00751
2640.7	0.00801
2650.7	0.00846
2661.1	0.00886
2671.8	0.00913
2682.6	0.00903
2693.4	0.00821
2703.7	0.00675
2713.8	0.00543
2723.9	0.00477
2734.2	0.00472
2745	0.00506
2755	0.00557
2767	0.00624
2777.7	0.00683
2789.2	0.00741
2799.9	0.00786
2810.4	0.00816
2821.7	0.00823
2833.2	0.00782
2844	0.00696
2854.5	0.00598
2864.8	0.00533
2874.9	0.00512
2885.2	0.00525
2895.4	0.00561
2906.7	0.00614
2917.6	0.0067
2928.5	0.00727
2939.2	0.0078
2950	0.0083
2960.7	0.00875
2971.4	0.00907
2982.2	0.00912
2993.1	0.00854
3003.1	0.00727
3013.5	0.00579
3023.8	0.0049
3033.8	0.00468
3044.7	0.00493
3054.8	0.0054
3066.9	0.00608
3077.5	0.00667
3088.5	0.00724
3098.8	0.00771
3109.6	0.00808
3120.3	0.00825
3130.6	0.00808
3141.7	0.00742
3152.1	0.00645
3162.9	0.00558
3173	0.00517
3183.5	0.00516
3193.8	0.00543
3204.8	0.00591
3217.2	0.00653
3227.2	0.00705
3238.3	0.00761
3249	0.00813
3259.4	0.00859
3269.6	0.00895
3279.7	0.00915
3290.1	0.00895
3300.6	0.00802
3310.7	0.00656
3320.8	0.00532
3331.5	0.00473
3342.1	0.00476
3352.5	0.00514
3363.4	0.00571
3374.4	0.00634
3384.9	0.00691
3395.9	0.00746
3406.4	0.00789
3416.9	0.00818
3426.9	0.00823
3438.3	0.00786
3449.3	0.007
3459.8	0.00601
3470.2	0.00534
3480.3	0.00512
3490.5	0.00524
3500.6	0.00559
3511.5	0.0061
3522.3	0.00665
3533.6	0.00723
3544.5	0.00778
3555.4	0.00829
3566.1	0.00874
3576.9	0.00907
3587.6	0.00912
3598.4	0.00858
3608.5	0.00732
3619	0.00582
3629.3	0.00491
3639.3	0.00468
3650.1	0.00492
3661.3	0.00544
3671.8	0.00603
3682.2	0.00661
3693.5	0.00721
3704.1	0.00769
3714.9	0.00806
3725.5	0.00824
3735.7	0.00811
3746.9	0.00746
3757.5	0.00649
3768.3	0.0056
3778.4	0.00517
3788.9	0.00515
3799.1	0.00542
3809.8	0.00587
3821.8	0.00647
3832.2	0.00701
3842.2	0.00752
3852.4	0.00802
3863.2	0.0085
3873.5	0.00889
3884.3	0.00914
3894.3	0.00902
3905.1	0.00818
3915.3	0.00673
3925.5	0.00542
3935.5	0.00477
3945.9	0.00472
3956.7	0.00507
3966.8	0.00559
3979.1	0.00628
3989.7	0.00686
4001.1	0.00743
4011.7	0.00787
4022.1	0.00817
4033.5	0.00822
4045	0.0078
4055.7	0.00693
4066.2	0.00596
4076.5	0.00532
4086.6	0.00512
4096.9	0.00526
4107.3	0.00563
4118.8	0.00617
4129.7	0.00674
4140.4	0.00729
4150.9	0.00781
4161.6	0.00831
4172.3	0.00875
4183.1	0.00908
4193.9	0.00911
4204.8	0.00852
4215.6	0.00712
4225.9	0.00567
4236.1	0.00486
4246.2	0.00469
4256.4	0.00494
4266.5	0.00541
4276.7	0.00598
4286.9	0.00655
4298.5	0.00717
4309.3	0.00766
4320.2	0.00805
4330.8	0.00824
4340.8	0.00813
4352.1	0.00751
4362.8	0.00653
4373.6	0.00562
4383.7	0.00518
4394.2	0.00514
4404.3	0.0054
4414.8	0.00584
4426.4	0.00642
4437	0.00697
4447.4	0.0075
4457.8	0.008
4467.8	0.00845
4478.2	0.00886
4488.9	0.00913
4499.6	0.00903
4510.4	0.00823
4520.8	0.00678
4530.9	0.00545
4541	0.00478
4551.3	0.00471
4562	0.00506
4573.5	0.00564
4583.8	0.00622
4594.5	0.00681
4604.6	0.00733
4615.7	0.00781
4626.3	0.00813
4637.3	0.00824
4648.5	0.00793
4658.6	0.0072
4669.6	0.00617
4680	0.00542
4690.1	0.00513
4701.1	0.00522
4712.4	0.0056
4723.5	0.00612
4734.4	0.00668
4745.4	0.00725
4756.2	0.00779
4767	0.0083
4777.8	0.00874
4788.5	0.00907
4799.3	0.00912
4810.1	0.00856
4820.2	0.0073
4830.6	0.0058
4840.9	0.0049
4850.9	0.00468
4861.7	0.00492
4873.1	0.00546
4883.7	0.00605
4894.2	0.00664
4905.4	0.00723
4915.8	0.0077
4926.6	0.00807
4937.3	0.00824
4947.6	0.00809
4958.6	0.00744
4969.1	0.00647
4979.9	0.00559
4990	0.00517
5000.6	0.00515
5010.8	0.00543
5021.7	0.00589
5033.9	0.0065
5044.1	0.00704
5055.3	0.0076
5066	0.00812
5076.5	0.00858
5086.6	0.00895
5096.7	0.00915
5107.1	0.00896
5117.6	0.00805
5127.8	0.00658
5137.8	0.00533
5147.8	0.00474
5158.3	0.00474
5168.4	0.00508
5178.6	0.0056
5191.1	0.00631
5201.6	0.00689
5212.8	0.00744
5223.4	0.00788
5233.9	0.00817
5243.9	0.00823
5255.2	0.00788
5266.3	0.00702
5276.9	0.00603
5287.2	0.00535
5297.4	0.00512
5307.5	0.00523
5317.5	0.00558
5328.3	0.00607
5339	0.00662
5350.5	0.00722
5361.5	0.00777
5371.5	0.00824
5381.6	0.00867
5391.6	0.00901
5402	0.00915
5412.1	0.00885
5422.1	0.00783
5432.9	0.00626
5443.5	0.0051
5454.1	0.00469
5464.4	0.00482
5474.4	0.00523
5484.6	0.00577
5496.1	0.00643
5506.3	0.00698
5516.9	0.0075
5527.2	0.00791
5537.7	0.00819
5547.9	0.00822
5559.4	0.0078
5570.1	0.00693
5580.5	0.00596
5590.8	0.00532
5601	0.00512
5611.3	0.00526
5621.6	0.00563
5633.1	0.00617
5644.1	0.00674
5654.7	0.00729
5665.2	0.00781
5676	0.00831
5686.7	0.00875
5697.4	0.00908
5708.3	0.00911
5719.1	0.00852
5729.9	0.00712
5740.3	0.00568
5750.5	0.00486
5760.6	0.00469
5770.7	0.00494
5780.9	0.00541
5791	0.00597
5801.2	0.00655
5812.9	0.00717
5823.6	0.00766
5834.5	0.00805
5845.1	0.00824
5855.1	0.00813
5866.4	0.0075
5877.1	0.00653
5888	0.00562
5898.1	0.00518
5908.6	0.00514
5918.7	0.0054
5929.2	0.00584
5940.8	0.00642
5951.4	0.00697
5961.8	0.0075
5972.1	0.008
5982.1	0.00845
5992.5	0.00886
6003.2	0.00913
6014	0.00903
6024.8	0.00823
6035.1	0.00678
6045.3	0.00545
6055.3	0.00478
6065.6	0.00471
6076.4	0.00505
6087.9	0.00564
6098.1	0.00622
6108.8	0.00681
6118.9	0.00732
6130	0.00781
6140.6	0.00813
6151.6	0.00824
6162.8	0.00793
6172.9	0.0072
6183.9	0.00617
6194.4	0.00542
6204.5	0.00513
6215.4	0.00522
6226.7	0.0056
6237.9	0.00612
6248.7	0.00668
6259.8	0.00725
6270.5	0.00779
6281.4	0.0083
6292.1	0.00874
6302.8	0.00907
6313.6	0.00912
6324.4	0.00856
6334.5	0.0073
6344.9	0.0058
6355.2	0.0049
6365.2	0.00468
6376.1	0.00492
6387.4	0.00546
6398	0.00605
6408.5	0.00664
6419.7	0.00722
6430.1	0.0077
6440.9	0.00807
6451.6	0.00824
6461.9	0.00809
6473	0.00744
6483.5	0.00647
6494.3	0.00559
6504.4	0.00517
6514.9	0.00515
6525.2	0.00543
6536	0.00589
6548.2	0.0065
6558.4	0.00703
6569.6	0.0076
6580.4	0.00812
6590.8	0.00858
6601	0.00895
6611.1	0.00915
6621.5	0.00896
6632	0.00805
6642.1	0.00658
6652.2	0.00533
6662.2	0.00475
6672.6	0.00474
6682.7	0.00508
6693	0.0056
6705.4	0.0063
6715.9	0.00689
6727.2	0.00744
6737.7	0.00788
6748.2	0.00817
6758.2	0.00823
6769.5	0.00788
6780.6	0.00702
6791.2	0.00603
6801.5	0.00535
6811.7	0.00512
6821.8	0.00523
6831.9	0.00558
6842.7	0.00607
6853.3	0.00662
6864.8	0.00721
6875.8	0.00777
6885.8	0.00824
6896	0.00867
6906	0.00901
6916.3	0.00915
6926.4	0.00885
6936.5	0.00784
6947.2	0.00626
6957.8	0.0051
6968.5	0.00469
6978.7	0.00482
6988.7	0.00523
6998.8	0.00577
7010.4	0.00643
7020.6	0.00698
7031.2	0.0075
7041.5	0.00791
7052	0.00819
7062.2	0.00822
7073.7	0.0078
7084.4	0.00693
7094.9	0.00597
7105.1	0.00532
7115.3	0.00512
7125.6	0.00526
7135.9	0.00562
7147.4	0.00617
7158.4	0.00673
7169	0.00728
7179.6	0.00781
7190.3	0.00831
7201	0.00875
7211.7	0.00908
7222.6	0.00911
7233.4	0.00852
7243.4	0.00725
7253.8	0.00577
7264.1	0.00489
7274.1	0.00468
7285	0.00494
7295.2	0.00541
7305.3	0.00597
7315.4	0.00655
7327.2	0.00717
7337.9	0.00766
7348.8	0.00805
7359.4	0.00824
7369.4	0.00813
7380.7	0.00751
7391.4	0.00653
7402.3	0.00563
7412.4	0.00518
7422.9	0.00514
7433	0.0054
7443.5	0.00583
7455.1	0.00641
7465.7	0.00696
7476.1	0.0075
7486.4	0.008
7496.5	0.00845
7506.8	0.00886
7517.6	0.00913
7528.3	0.00903
7539.1	0.00823
7549.4	0.00678
7559.6	0.00545
7569.6	0.00478
7579.9	0.00471
7590.7	0.00505
7602.2	0.00563
7612.3	0.00621
7623	0.0068
7633.2	0.00732
7644.3	0.0078
7654.9	0.00813
7665.9	0.00824
7677.1	0.00793
7687.2	0.0072
7698.2	0.00617
7708.7	0.00542
7718.8	0.00513
7729.7	0.00522
7741	0.0056
7752.1	0.00612
7763	0.00668
7774.1	0.00725
7784.8	0.00779
7795.7	0.00829
7806.4	0.00874
7817.1	0.00907
7827.9	0.00912
7838.7	0.00856
7848.8	0.0073
7859.2	0.00581
7869.5	0.0049
7879.6	0.00468
7890.4	0.00492
7901.7	0.00545
7912.3	0.00605
7922.8	0.00663
7934	0.00722
7944.4	0.00769
7955.2	0.00807
7965.9	0.00824
7976.2	0.0081
7987.2	0.00744
7997.8	0.00647
8008.6	0.00559
8018.7	0.00517
8029.2	0.00515
8039.4	0.00542
8050.3	0.00589
8062.5	0.0065
8072.7	0.00703
8083.9	0.0076
8094.7	0.00812
8105.2	0.00858
8115.3	0.00895
8125.4	0.00915
8135.8	0.00896
8146.3	0.00805
8156.4	0.00659
8166.5	0.00533
8176.5	0.00475
8186.9	0.00474
8197	0.00508
8207.2	0.0056
8219.6	0.0063
8230.2	0.00688
8241.4	0.00744
8252	0.00787
8262.5	0.00817
8273.9	0.00822
8285.4	0.00778
8296	0.00691
8306.5	0.00595
8316.8	0.00531
8326.9	0.00511
8337.2	0.00526
8347.6	0.00564
8359.3	0.00619
8370.3	0.00676
8380.8	0.0073
8391.2	0.00782
8401.9	0.00832
8412.6	0.00876
8423.3	0.00908
8434.2	0.00911
8445.1	0.0085
8455.9	0.0071
8466.2	0.00566
8476.4	0.00485
8486.5	0.00469
8496.7	0.00494
8506.9	0.00542
8517.1	0.00599
8527.4	0.00657
8538.9	0.00718
8549.6	0.00767
8560.5	0.00806
8571.1	0.00824
8581.2	0.00812
8592.4	0.00749
8603.1	0.00652
8613.9	0.00562
8624	0.00518
8634.5	0.00515
8644.6	0.0054
8655.2	0.00585
8667	0.00644
8677.5	0.00698
8687.8	0.00751
8698.1	0.00801
8708.1	0.00846
8718.4	0.00886
8729.2	0.00913
8739.9	0.00903
8750.7	0.00821
8761	0.00676
8771.2	0.00544
8781.2	0.00478
8791.5	0.00471
8802.3	0.00506
8813.9	0.00565
8824.2	0.00623
8834.9	0.00683
8844.9	0.00733
8856	0.00781
8866.6	0.00814
8877.6	0.00824
8888.8	0.00792
8898.9	0.00718
8909.8	0.00616
8920.3	0.00541
8930.4	0.00513
8941.4	0.00522
8952.7	0.00561
8964	0.00614
8974.9	0.0067
8985.8	0.00726
8996.5	0.0078
9007.3	0.0083
9018	0.00875
9028.7	0.00907
9039.6	0.00912
9050.4	0.00855
9060.4	0.00728
9070.8	0.00579
9081.1	0.0049
9091.2	0.00468
9102	0.00493
9112	0.00539
9124.1	0.00607
9134.6	0.00666
9145.7	0.00723
9156.1	0.0077
9166.9	0.00807
9177.6	0.00824
9187.9	0.00809
9198.9	0.00743
9209.4	0.00646
9220.2	0.00558
9230.3	0.00517
9240.8	0.00516
9251.1	0.00543
9262.1	0.0059
9274.4	0.00652
9284.5	0.00705
9295.6	0.00761
9306.3	0.00813
9316.8	0.00858
9326.9	0.00895
9337	0.00915
9347.4	0.00895
9357.9	0.00803
9368	0.00657
9378.1	0.00532
9388.8	0.00473
9399.3	0.00476
9409.8	0.00514
9420.6	0.0057
9431.5	0.00632
9442	0.0069
9453.1	0.00745
9463.6	0.00788
9474.1	0.00817
9484.2	0.00823
9495.5	0.00787
9506.5	0.00701
9517.1	0.00602
9527.5	0.00535
9537.6	0.00512
9547.8	0.00524
9557.8	0.00558
9568.7	0.00609
9579.5	0.00664
9590.8	0.00723
9601.8	0.00777
9611.8	0.00824
9621.9	0.00867
9631.9	0.00901
9642.2	0.00915
9652.3	0.00884
9662.4	0.00782
9673.1	0.00625
9683.7	0.00509
9694.4	0.00469
9704.6	0.00482
9714.7	0.00524
9724.9	0.00578
9736.5	0.00644
9746.7	0.00699
9757.2	0.0075
9767.5	0.00791
9777.9	0.00819
9788.2	0.00822
9799.7	0.00779
9810.3	0.00692
9820.8	0.00596
9831.1	0.00532
9841.2	0.00511
9851.5	0.00526
9861.9	0.00563
9873.5	0.00618
9884.5	0.00675
9895	0.00729
9905.5	0.00782
9916.2	0.00832
9926.9	0.00876
9937.6	0.00908
9948.5	0.00911
9959.3	0.00851
9970.1	0.00711
9980.5	0.00567
9990.7	0.00485
10001	0.00469
10011	0.00494
10021	0.00542
10031	0.00598
10042	0.00656
10053	0.00718
10064	0.00767
10075	0.00805
10085	0.00824
10095	0.00812
10107	0.0075
10117	0.00652
10128	0.00562
10138	0.00518
10149	0.00515
10159	0.0054
10169	0.00584
10181	0.00643
10192	0.00698
10202	0.0075
10212	0.00801
10222	0.00846
10233	0.00886
10243	0.00913
10254	0.00903
10265	0.00822
10275	0.00677
10285	0.00544
10296	0.00478
10306	0.00471
10317	0.00506
10328	0.00564
10338	0.00623
10349	0.00682
10359	0.00733
10370	0.00781
10381	0.00813
10392	0.00824
10403	0.00792
10413	0.00719
10424	0.00616
10435	0.00542
10445	0.00513
10456	0.00522
10467	0.0056
10478	0.00613
10489	0.00669
10500	0.00726
10511	0.00779
10522	0.0083
10532	0.00874
10543	0.00907
10554	0.00912
10565	0.00855
10575	0.00729
10585	0.0058
10595	0.0049
10605	0.00468
10616	0.00493
10626	0.00539
10638	0.00606
10649	0.00665
10660	0.00723
10670	0.0077
10681	0.00807
10692	0.00824
10702	0.00809
10713	0.00743
10724	0.00646
10734	0.00559
10745	0.00517
10755	0.00515
10765	0.00543
10776	0.00589
10789	0.00651
10799	0.00704
10810	0.00761
10821	0.00812
10831	0.00858
10841	0.00895
10851	0.00915
10862	0.00896
10872	0.00804
10882	0.00658
10892	0.00533
10902	0.00474
10913	0.00474
10923	0.00508
10933	0.0056
10946	0.00631
10956	0.00689
10967	0.00744
10978	0.00788
10988	0.00817
10998	0.00823
11010	0.00787
11021	0.00701
11031	0.00603
11042	0.00535
11052	0.00512
11062	0.00524
11072	0.00558
11083	0.00608
11094	0.00663
11105	0.00722
11116	0.00777
11126	0.00824
11136	0.00867
11146	0.00901
11156	0.00915
11167	0.00885
11177	0.00783
11187	0.00626
11198	0.0051
11209	0.00469
11219	0.00482
11229	0.00523
11239	0.00577
11251	0.00643
11261	0.00698
11271	0.0075
11282	0.00791
11292	0.00819
11302	0.00822
11314	0.0078
11325	0.00693
11335	0.00596
11345	0.00532
11355	0.00512
11366	0.00526
11376	0.00563
11388	0.00617
11399	0.00674
11409	0.00729
11420	0.00781
11430	0.00831
11441	0.00875
11452	0.00908
11463	0.00911
11474	0.00852
11484	0.00712
11495	0.00567
11505	0.00486
11515	0.00469
11525	0.00494
11535	0.00541
11545	0.00597
11556	0.00655
11567	0.00717
11578	0.00766
11589	0.00805
11600	0.00824
11610	0.00813
11621	0.0075
11632	0.00653
11642	0.00562
11653	0.00518
11663	0.00514
11673	0.0054
11684	0.00584
11695	0.00642
11706	0.00697
11716	0.0075
11727	0.008
11737	0.00845
11747	0.00886
11758	0.00913
11768	0.00903
11779	0.00823
11790	0.00678
11800	0.00545
11810	0.00478
11820	0.00471
11831	0.00505
11842	0.00564
11853	0.00621
11863	0.00681
11873	0.00732
11884	0.0078
11895	0.00813
11906	0.00824
11917	0.00793
11927	0.0072
11938	0.00617
11949	0.00542
11959	0.00513
11970	0.00522
11981	0.0056
11992	0.00612
12003	0.00668
12014	0.00725
12025	0.00779
12036	0.0083
12047	0.00874
12057	0.00907
12068	0.00912
12079	0.00856
12089	0.0073
12099	0.00581
12110	0.0049
12120	0.00468
12131	0.00492
12142	0.00545
12152	0.00605
12163	0.00663
12174	0.00722
12185	0.00769
12195	0.00807
12206	0.00824
12216	0.0081
12227	0.00744
12238	0.00647
12249	0.00559
12259	0.00517
12269	0.00515
12280	0.00542
12290	0.00589
12303	0.0065
12313	0.00703
12324	0.0076
12335	0.00812
12345	0.00858
12355	0.00895
12366	0.00915
12376	0.00896
12386	0.00805
12397	0.00659
12407	0.00533
12417	0.00475
12427	0.00474
12437	0.00508
12447	0.0056
12460	0.0063
12470	0.00688
12482	0.00744
12492	0.00787
12503	0.00817
12514	0.00822
12526	0.00778
12536	0.00691
12547	0.00595
12557	0.00531
12567	0.00511
12577	0.00526
12588	0.00564
12599	0.00619
12610	0.00676
12621	0.0073
12631	0.00782
12642	0.00832
12653	0.00876
12663	0.00908
12674	0.00911
12685	0.00851
12696	0.00711
12706	0.00566
12717	0.00485
12727	0.00469
12737	0.00494
12747	0.00542
12757	0.00599
12767	0.00657
12779	0.00718
12790	0.00767
12801	0.00805
12811	0.00824
12821	0.00812
12833	0.00749
12843	0.00652
12854	0.00562
12864	0.00518
12875	0.00515
12885	0.0054
12895	0.00585
12907	0.00644
12918	0.00698
12928	0.00751
12938	0.00801
12948	0.00846
12959	0.00886
12969	0.00913
12980	0.00903
12991	0.00821
13001	0.00676
13011	0.00544
13021	0.00478
13032	0.00471
13042	0.00506
13054	0.00565
13064	0.00623
13075	0.00682
13085	0.00733
13096	0.00781
13107	0.00814
13118	0.00824
13129	0.00792
13139	0.00718
13150	0.00616
13160	0.00542
13171	0.00513
13182	0.00522
13193	0.00561
13204	0.00614
13215	0.0067
13226	0.00726
13237	0.0078
13247	0.0083
13258	0.00874
13269	0.00907
13280	0.00912
13290	0.00855
13301	0.00728
13311	0.00579
13321	0.0049
13331	0.00468
13342	0.00493
13352	0.00539
13364	0.00606
13375	0.00665
13386	0.00723
13396	0.0077
13407	0.00807
13418	0.00824
13428	0.00809
13439	0.00743
13450	0.00646
13460	0.00558
13470	0.00517
13481	0.00516
13491	0.00543
13502	0.0059
13514	0.00652
13525	0.00705
13536	0.00761
13546	0.00812
13557	0.00858
13567	0.00895
13577	0.00915
13588	0.00896
13598	0.00804
13608	0.00657
13618	0.00532
13629	0.00473
13639	0.00476
13650	0.00513
13661	0.0057
13672	0.00632
13682	0.00689
13693	0.00745
13704	0.00788
13714	0.00817
13724	0.00823
13736	0.00787
13747	0.00701
13757	0.00602
13768	0.00535
13778	0.00512
13788	0.00524
13798	0.00558
13809	0.00608
13820	0.00663
13831	0.00722
13842	0.00777
13852	0.00824
13862	0.00867
13872	0.00901
13882	0.00915
13892	0.00884
13902	0.00783
13913	0.00625
13924	0.0051
13934	0.00469
13945	0.00482
13955	0.00523
13965	0.00578
13977	0.00644
13987	0.00699
13997	0.0075
14008	0.00791
14018	0.00819
14028	0.00822
14040	0.00779
14050	0.00692
14061	0.00596
14071	0.00532
14081	0.00511
14092	0.00526
14102	0.00563
14114	0.00618
14125	0.00674
14135	0.00729
14146	0.00781
14156	0.00831
14167	0.00876
14178	0.00908
14189	0.00911
14199	0.00851
14210	0.00712
14221	0.00567
14231	0.00485
14241	0.00469
14251	0.00494
14261	0.00541
14271	0.00598
14282	0.00655
14293	0.00717
14304	0.00766
14315	0.00805
14325	0.00824
14335	0.00812
14347	0.0075
14357	0.00653
14368	0.00562
14378	0.00518
14389	0.00515
14399	0.0054
14410	0.00584
14421	0.00642
14432	0.00697
14442	0.0075
14452	0.008
14462	0.00846
14473	0.00886
14484	0.00913
14494	0.00903
14505	0.00822
14515	0.00677
14526	0.00544
14536	0.00478
14546	0.00471
14557	0.00505
14568	0.00564
14578	0.00622
14589	0.00681
14599	0.00732
14610	0.00781
14621	0.00813
14632	0.00824
14643	0.00793
14653	0.00719
14664	0.00616
14675	0.00542
14685	0.00513
14696	0.00522
14707	0.0056
14718	0.00612
14729	0.00668
14740	0.00725
14751	0.00779
14762	0.0083
14772	0.00874
14783	0.00907
14794	0.00912
14805	0.00856
14815	0.0073
14825	0.0058
14835	0.0049
14846	0.00468
14856	0.00492
14868	0.00545
14878	0.00605
14889	0.00664
14900	0.00722
14910	0.00769
14921	0.00807
14932	0.00824
14942	0.00809
14953	0.00744
14964	0.00647
14975	0.00559
14985	0.00517
14995	0.00515
15005	0.00543
15016	0.00589
15029	0.0065
15039	0.00704
15050	0.0076
15061	0.00812
15071	0.00858
15081	0.00895
15091	0.00915
15102	0.00896
15112	0.00805
15122	0.00658
15132	0.00533
15142	0.00474
15153	0.00474
15163	0.00508
15173	0.0056
15186	0.0063
15196	0.00688
15207	0.00744
15218	0.00788
15228	0.00817
15240	0.00822
15251	0.00778
15262	0.00691
15272	0.00595
15283	0.00531
15293	0.00511
15303	0.00526
15314	0.00564
15325	0.00619
15336	0.00676
15347	0.0073
15357	0.00782
15368	0.00832
15379	0.00876
15389	0.00908
15400	0.00911
15411	0.0085
15422	0.0071
15432	0.00566
15442	0.00485
15452	0.00469
15463	0.00494
15473	0.00542
15483	0.00599
15493	0.00657
15505	0.00718
15516	0.00767
15526	0.00805
15537	0.00824
15547	0.00812
15558	0.00749
15569	0.00651
15580	0.00561
15590	0.00518
15600	0.00515
15611	0.00541
15621	0.00585
15633	0.00644
15643	0.00699
15654	0.00751
15664	0.00801
15674	0.00846
15684	0.00886
15695	0.00913
15706	0.00903
15717	0.00821
15727	0.00676
15737	0.00544
15747	0.00477
15757	0.00471
15768	0.00506
15780	0.00565
15790	0.00623
15801	0.00682
15811	0.00733
15822	0.00781
15832	0.00814
15844	0.00824
15855	0.00792
15865	0.00718
15876	0.00615
15886	0.00541
15896	0.00513
15907	0.00522
15919	0.00561
15930	0.00614
15941	0.0067
15952	0.00726
15962	0.0078
15973	0.0083
15984	0.00875
15995	0.00907
16005	0.00912
16016	0.00855
16026	0.00728
16037	0.00579
16047	0.0049
16057	0.00468
16068	0.00493
16078	0.00539
16090	0.00606
16101	0.00665
16112	0.00723
16122	0.0077
16133	0.00807
16143	0.00824
16154	0.00809
16165	0.00743
16175	0.00646
16186	0.00558
16196	0.00517
16207	0.00516
16217	0.00543
16228	0.0059
16240	0.00652
16250	0.00705
16261	0.00761
16272	0.00813
16283	0.00858
16293	0.00895
16303	0.00915
16313	0.00895
16324	0.00804
16334	0.00657
16344	0.00532
16355	0.00473
16365	0.00476
16376	0.00514
16386	0.0057
16397	0.00632
16408	0.0069
16419	0.00745
16430	0.00788
16440	0.00817
16450	0.00823
16461	0.00787
16472	0.00701
16483	0.00602
16493	0.00535
16504	0.00512
16514	0.00524
16524	0.00558
16535	0.00609
16545	0.00664
16557	0.00722
16568	0.00777
16578	0.00824
16588	0.00867
16598	0.00901
16608	0.00915
16618	0.00884
16628	0.00783
16639	0.00625
16650	0.0051
16660	0.00469
16670	0.00482
16681	0.00523
16691	0.00578
16702	0.00644
16713	0.00699
16723	0.0075
16733	0.00791
16744	0.00819
16754	0.00822
16766	0.00779
16776	0.00692
16787	0.00596
16797	0.00532
16807	0.00511
16817	0.00526
16828	0.00563
16839	0.00618
16850	0.00675
16861	0.00729
16871	0.00781
16882	0.00831
16893	0.00876
16904	0.00908
16914	0.00911
16925	0.00851
16936	0.00712
16946	0.00567
16957	0.00485
16967	0.00469
16977	0.00494
16987	0.00541
16997	0.00598
17007	0.00655
17019	0.00717
17030	0.00766
17041	0.00805
17051	0.00824
17061	0.00812
17073	0.0075
17083	0.00652
17094	0.00562
17104	0.00518
17115	0.00515
17125	0.0054
17135	0.00584
17147	0.00642
17158	0.00697
17168	0.0075
17178	0.008
17188	0.00846
17199	0.00886
17209	0.00913
17220	0.00903
17231	0.00822
17241	0.00677
17251	0.00544
17261	0.00478
17272	0.00471
17282	0.00505
17294	0.00564
17304	0.00622
17315	0.00681
17325	0.00732
17336	0.00781
17347	0.00813
17358	0.00824
17369	0.00793
17379	0.00719
17390	0.00616
17400	0.00542
17411	0.00513
17422	0.00522
17433	0.0056
17444	0.00612
17455	0.00668
17466	0.00725
17477	0.00779
17487	0.0083
17498	0.00874
17509	0.00907
17520	0.00912
17530	0.00856
17541	0.0073
17551	0.0058
17561	0.0049
17571	0.00468
17582	0.00492
17593	0.00545
17604	0.00605
17615	0.00664
17626	0.00722
17636	0.00769
17647	0.00807
17658	0.00824
17668	0.00809
17679	0.00744
17690	0.00647
17700	0.00559
17710	0.00517
17721	0.00515
17731	0.00543
17742	0.00589
17754	0.0065
17765	0.00704
17776	0.0076
17786	0.00812
17797	0.00858
17807	0.00895
17817	0.00915
17828	0.00896
17838	0.00805
17848	0.00659
17858	0.00533
17868	0.00474
17879	0.00474
17889	0.00508
17899	0.0056
17911	0.0063
17922	0.00688
17933	0.00744
17944	0.00787
17954	0.00817
17966	0.00822
17977	0.00778
17988	0.00691
17998	0.00595
18009	0.00531
18019	0.00511
18029	0.00526
18039	0.00564
18051	0.00619
18062	0.00676
18073	0.0073
18083	0.00782
18094	0.00832
18104	0.00876
18115	0.00908
18126	0.00911
18137	0.0085
18148	0.0071
18158	0.00566
18168	0.00485
18178	0.00469
18188	0.00494
18199	0.00542
18209	0.00599
18219	0.00657
18231	0.00718
18241	0.00767
18252	0.00805
18263	0.00824
18273	0.00812
18284	0.00749
18295	0.00651
18306	0.00562
18316	0.00518
18326	0.00515
18336	0.00541
18347	0.00585
18359	0.00644
18369	0.00699
18380	0.00751
18390	0.00801
18400	0.00846
18410	0.00886
18421	0.00913
18432	0.00903
18442	0.00821
18453	0.00676
18463	0.00544
18473	0.00478
18483	0.00471
18494	0.00506
18506	0.00565
18516	0.00623
18527	0.00682
18537	0.00733
18548	0.00781
18558	0.00814
18569	0.00824
18581	0.00792
18591	0.00718
18602	0.00616
18612	0.00541
18622	0.00513
18633	0.00522
18644	0.00561
18656	0.00614
18667	0.0067
18678	0.00726
18688	0.0078
18699	0.0083
18710	0.00875
18720	0.00907
18731	0.00912
18742	0.00855
18752	0.00728
18763	0.00579
18773	0.0049
18783	0.00468
18794	0.00493
18804	0.00539
18816	0.00606
18826	0.00665
18837	0.00723
18848	0.0077
18859	0.00807
18869	0.00824
18880	0.00809
18891	0.00743
18901	0.00646
18912	0.00558
18922	0.00517
18933	0.00516
18943	0.00543
18954	0.0059
18966	0.00652
18976	0.00705
18987	0.00761
18998	0.00813
19008	0.00858
19019	0.00895
19029	0.00915
19039	0.00896
19050	0.00804
19060	0.00657
19070	0.00532
19080	0.00473
19091	0.00476
19101	0.00513
19112	0.0057
19123	0.00631
19134	0.00689
19145	0.00745
19155	0.00788
19166	0.00817
19176	0.00823
19187	0.00787
19198	0.00701
19209	0.00602
19219	0.00535
19229	0.00512
19239	0.00524
19250	0.00558
19260	0.00608
19271	0.00663
19282	0.00722
19293	0.00777
19303	0.00824
19314	0.00867
19324	0.00901
19334	0.00915
19344	0.00884
19354	0.00783
19365	0.00625
19375	0.0051
19386	0.00469
19396	0.00482
19406	0.00523
19416	0.00578
19428	0.00643
19438	0.00699
19449	0.0075
19459	0.00791
19470	0.00819
19480	0.00822
19491	0.00779
19502	0.00692
19512	0.00596
19523	0.00532
19533	0.00511
19543	0.00526
19554	0.00563
19565	0.00618
19576	0.00674
19587	0.00729
19597	0.00781
19608	0.00831
19619	0.00875
19629	0.00908
19640	0.00911
19651	0.00852
19662	0.00712
19672	0.00567
19682	0.00485
19692	0.00469
19703	0.00494
19713	0.00541
19723	0.00597
19733	0.00655
19745	0.00717
19755	0.00766
19766	0.00805
19777	0.00824
19787	0.00812
19798	0.0075
19809	0.00653
19820	0.00562
19830	0.00518
19840	0.00515
19851	0.0054
19861	0.00584
19873	0.00642
19883	0.00697
19894	0.0075
19904	0.008
19914	0.00846
19924	0.00886
19935	0.00913
19946	0.00903
19957	0.00823
19967	0.00678
19977	0.00545
19987	0.00478
19997	0.00471
20008	0.00505
20020	0.00564
20030	0.00621
20041	0.00681
20051	0.00732
20062	0.0078
20072	0.00813
20083	0.00824
20095	0.00793
20105	0.00719
20116	0.00617
20126	0.00542
20136	0.00513
20147	0.00522
20159	0.0056
20170	0.00612
20181	0.00668
20192	0.00725
20202	0.00779
20213	0.0083
20224	0.00874
20235	0.00907
20245	0.00912
20256	0.00856
20266	0.0073
20277	0.00581
20287	0.0049
20297	0.00468
20308	0.00492
20319	0.00545
20330	0.00604
20340	0.00663
20351	0.00722
20362	0.00769
20373	0.00807
20383	0.00824
20394	0.00809
20405	0.00744
20415	0.00647
20426	0.00559
20436	0.00517
20447	0.00515
20457	0.00543
20468	0.00589
20480	0.0065
20490	0.00703
20501	0.0076
20512	0.00812
20523	0.00858
20533	0.00895
20543	0.00915
20553	0.00896
20564	0.00805
20574	0.00659
20584	0.00533
20594	0.00475
20604	0.00474
20615	0.00508
20625	0.0056
20637	0.0063
20648	0.00688
20659	0.00744
20670	0.00787
20680	0.00817
20691	0.00822
20703	0.00778
20714	0.00691
20724	0.00595
20734	0.00531
20744	0.00511
20755	0.00526
20765	0.00564
20777	0.00619
20788	0.00676
20798	0.0073
20809	0.00782
20819	0.00832
20830	0.00876
20841	0.00908
20852	0.00911
20863	0.00851
20873	0.00711
20884	0.00566
20894	0.00485
20904	0.00469
20914	0.00494
20924	0.00542
20935	0.00599
20945	0.00657
20956	0.00718
20967	0.00767
20978	0.00805
20989	0.00824
20999	0.00812
21010	0.00749
21021	0.00652
21031	0.00562
21042	0.00518
21052	0.00515
21062	0.0054
21073	0.00585
21085	0.00644
21095	0.00698
21105	0.00751
21116	0.00801
21126	0.00846
21136	0.00886
21147	0.00913
21157	0.00903
21168	0.00821
21179	0.00676
21189	0.00544
21199	0.00478
21209	0.00471
21220	0.00506
21231	0.00564
21242	0.00623
21252	0.00682
21262	0.00733
21273	0.00781
21284	0.00813
21295	0.00824
21306	0.00792
21316	0.00718
21327	0.00616
21338	0.00542
21348	0.00513
21359	0.00522
21370	0.00561
21381	0.00613
21392	0.00669
21403	0.00726
21414	0.00779
21425	0.0083
21436	0.00874
21446	0.00907
21457	0.00912
21468	0.00855
21478	0.00729
21488	0.0058
21499	0.0049
21509	0.00468
21519	0.00493
21529	0.00539
21542	0.00606
21552	0.00665
21563	0.00723
21574	0.0077
21584	0.00807
21595	0.00824
21605	0.00809
21616	0.00743
21627	0.00646
21638	0.00558
21648	0.00517
21658	0.00515
21669	0.00543
21680	0.0059
21692	0.00652
21702	0.00704
21713	0.00761
21724	0.00812
21734	0.00858
21744	0.00895
21754	0.00915
21765	0.00896
21775	0.00804
21785	0.00658
21796	0.00533
21806	0.00473
21817	0.00475
21827	0.00513
21838	0.0057
21849	0.00631
21859	0.00689
21871	0.00744
21881	0.00788
21892	0.00817
21902	0.00823
21913	0.00787
21924	0.00701
21935	0.00602
21945	0.00535
21955	0.00512
21965	0.00524
21975	0.00558
21986	0.00608
21997	0.00663
22008	0.00722
22019	0.00777
22029	0.00824
22039	0.00867
22049	0.00901
22060	0.00915
22070	0.00885
22080	0.00783
22091	0.00626
22101	0.0051
22112	0.00469
22122	0.00482
22132	0.00523
22142	0.00577
22154	0.00643
22164	0.00698
22175	0.0075
22185	0.00791
22195	0.00819
22206	0.00822
22217	0.0078
22228	0.00693
22238	0.00596
22248	0.00532
22259	0.00511
22269	0.00526
22279	0.00563
22291	0.00617
22302	0.00674
22312	0.00729
22323	0.00781
22334	0.00831
22344	0.00875
22355	0.00908
22366	0.00911
22377	0.00852
22388	0.00712
22398	0.00568
22408	0.00486
22418	0.00469
22428	0.00494
22438	0.00541
22449	0.00597
22459	0.00655
22470	0.00717
22481	0.00766
22492	0.00805
22503	0.00824
22513	0.00813
22524	0.0075
22535	0.00653
22546	0.00562
22556	0.00518
22566	0.00514
22576	0.0054
22587	0.00584
22598	0.00642
22609	0.00697
22619	0.0075
22630	0.008
22640	0.00845
22650	0.00886
22661	0.00913
22672	0.00903
22682	0.00823
22693	0.00678
22703	0.00545
22713	0.00478
22723	0.00471
22734	0.00505
22745	0.00563
22756	0.00621
22766	0.0068
22776	0.00732
22788	0.0078
22798	0.00813
22809	0.00824
22820	0.00793
22831	0.0072
22842	0.00617
22852	0.00542
22862	0.00513
22873	0.00522
22884	0.0056
22895	0.00612
22906	0.00668
22917	0.00725
22928	0.00779
22939	0.00829
22950	0.00874
22960	0.00907
22971	0.00912
22982	0.00856
22992	0.0073
23003	0.00581
23013	0.00491
23023	0.00468
23034	0.00492
23045	0.00545
23056	0.00604
23066	0.00663
23077	0.00722
23088	0.00769
23099	0.00807
23109	0.00824
23119	0.0081
23131	0.00744
23141	0.00647
23152	0.00559
23162	0.00517
23173	0.00515
23183	0.00542
23194	0.00588
23206	0.0065
23216	0.00703
23227	0.0076
23238	0.00812
23248	0.00858
23259	0.00894
23269	0.00915
23279	0.00896
23290	0.00806
23300	0.00659
23310	0.00534
23320	0.00475
23330	0.00473
23340	0.00508
23350	0.00559
23363	0.00629
23373	0.00687
23385	0.00743
23395	0.00787
23406	0.00817
23417	0.00822
23429	0.00779
23439	0.00692
23450	0.00595
23460	0.00532
23470	0.00511
23481	0.00526
23491	0.00563
23503	0.00619
23514	0.00675
23524	0.0073
23534	0.00782
23545	0.00832
23556	0.00876
23567	0.00908
23578	0.00911
23588	0.00851
23599	0.00711
23609	0.00567
23620	0.00485
23630	0.00469
23640	0.00494
23650	0.00542
23660	0.00598
23670	0.00656
23682	0.00718
23693	0.00767
23704	0.00805
23714	0.00824
23724	0.00812
23736	0.00749
23746	0.00652
23757	0.00562
23767	0.00518
23778	0.00515
23788	0.0054
23798	0.00584
23810	0.00643
23821	0.00698
23831	0.0075
23841	0.00801
23851	0.00846
23862	0.00886
23872	0.00913
23883	0.00903
23894	0.00822
23904	0.00677
23914	0.00544
23924	0.00478
23935	0.00471
23946	0.00506
23957	0.00564
23967	0.00622
23978	0.00681
23988	0.00733
23999	0.00781
24010	0.00813
24021	0.00824
24032	0.00792
24042	0.00719
24053	0.00616
24064	0.00542
24074	0.00513
24085	0.00522
24096	0.0056
24107	0.00613
24118	0.00669
24129	0.00726
24140	0.00779
24151	0.0083
24161	0.00874
24172	0.00907
24183	0.00912
24194	0.00855
24204	0.00729
24214	0.0058
24224	0.0049
24234	0.00468
24245	0.00492
24257	0.00546
24267	0.00605
24278	0.00664
24289	0.00723
24299	0.0077
24310	0.00807
24321	0.00824
24331	0.00809
24342	0.00743
24353	0.00647
24363	0.00559
24374	0.00517
24384	0.00515
24394	0.00543
24405	0.00589
24417	0.00651
24428	0.00704
24439	0.00761
24450	0.00812
24460	0.00858
24470	0.00895
24480	0.00915
24491	0.00896
24501	0.00805
24511	0.00658
24521	0.00533
24532	0.00473
24543	0.00475
24553	0.00513
24564	0.00569
24574	0.0063
24585	0.00688
24596	0.00744
24607	0.00788
24617	0.00817
24627	0.00823
24639	0.00787
24650	0.00702
24660	0.00603
24671	0.00535
24681	0.00512
24691	0.00524
24701	0.00558
24712	0.00608
24723	0.00662
24734	0.00722
24745	0.00777
24755	0.00824
24765	0.00867
24775	0.00901
24785	0.00915
24795	0.00885
24806	0.00784
24816	0.00626
24827	0.0051
24838	0.00469
24848	0.00482
24858	0.00523
24868	0.00577
24879	0.00642
24890	0.00698
24900	0.00749
24911	0.00791
24921	0.00819
24931	0.00822
24943	0.0078
24953	0.00693
24964	0.00596
24974	0.00532
24984	0.00511
24995	0.00526
25005	0.00563
25017	0.00617
25027	0.00673
25038	0.00728
25049	0.00781
25059	0.00831
25070	0.00875
25081	0.00908
25092	0.00911
25103	0.00852
25113	0.00725
25123	0.00577
25133	0.00489
25143	0.00468
25154	0.00494
25164	0.00541
25174	0.00597
25184	0.00654
25196	0.00716
25207	0.00766
25218	0.00805
25228	0.00824
25238	0.00813
25250	0.00751
25261	0.00653
25271	0.00563
25281	0.00518
25292	0.00514
25302	0.0054
25313	0.00583
25324	0.00641
25335	0.00696
25345	0.0075
25356	0.008
25366	0.00845
25376	0.00886
25387	0.00913
25397	0.00904
25408	0.00823
25418	0.00678
25429	0.00545
25439	0.00478
25449	0.00471
25460	0.00505
25471	0.00563
25481	0.0062
25492	0.0068
25502	0.00732
25513	0.0078
25524	0.00813
25535	0.00824
25546	0.00794
25556	0.0072
25567	0.00617
25578	0.00542
25588	0.00513
25599	0.00522
25610	0.0056
25621	0.00611
25632	0.00667
25643	0.00725
25654	0.00779
25665	0.00829
25675	0.00874
25686	0.00907
25697	0.00912
25708	0.00857
25718	0.00731
25728	0.00581
25739	0.00491
25749	0.00468
25759	0.00492
25771	0.00545
25781	0.00603
25792	0.00662
25803	0.00721
25813	0.00769
25824	0.00807
25835	0.00824
25845	0.0081
25856	0.00745
25867	0.00648
25878	0.00559
25888	0.00517
25898	0.00515
25908	0.00542
25919	0.00588
25931	0.00649
25942	0.00702
25953	0.0076
25964	0.00812
25974	0.00858
25984	0.00894
25994	0.00915
26005	0.00897
26015	0.00806
26025	0.0066
26036	0.00534
26046	0.00475
26056	0.00473
26066	0.00507
26076	0.00559
26088	0.00628
26099	0.00687
26110	0.00743
26121	0.00787
26131	0.00817
26143	0.00822
26154	0.00779
26165	0.00692
26176	0.00596
26186	0.00532
26196	0.00511
26206	0.00526
26217	0.00563
26228	0.00618
26239	0.00675
26250	0.00729
26260	0.00781
26271	0.00831
26282	0.00876
26292	0.00908
26303	0.00911
26314	0.00851
26325	0.00712
26335	0.00567
26345	0.00485
26356	0.00469
26366	0.00494
26376	0.00541
26386	0.00598
26396	0.00655
26408	0.00717
26419	0.00766
26429	0.00805
26440	0.00824
26450	0.00812
26461	0.0075
26472	0.00652
26483	0.00562
26493	0.00518
26504	0.00515
26514	0.0054
26524	0.00584
26536	0.00642
26546	0.00697
26557	0.0075
26567	0.008
26577	0.00846
26587	0.00886
26598	0.00913
26609	0.00903
26620	0.00822
26630	0.00677
26640	0.00544
26650	0.00478
26661	0.00471
26671	0.00505
26683	0.00564
26693	0.00622
26704	0.00681
26714	0.00732
26725	0.0078
26736	0.00813
26747	0.00824
26758	0.00793
26768	0.00719
26779	0.00616
26789	0.00542
26799	0.00513
26810	0.00522
26822	0.0056
26833	0.00612
26844	0.00668
26855	0.00725
26865	0.00779
26876	0.0083
26887	0.00874
26898	0.00907
26909	0.00912
26919	0.00856
26929	0.0073
26940	0.0058
26950	0.0049
26960	0.00468
26971	0.00492
26982	0.00545
26993	0.00605
27003	0.00664
27015	0.00722
27025	0.00769
27036	0.00807
27046	0.00824
27057	0.00809
27068	0.00744
27078	0.00647
27089	0.00559
27099	0.00517
27110	0.00515
27120	0.00543
27131	0.00589
27143	0.0065
27153	0.00703
27164	0.0076
27175	0.00812
27186	0.00858
27196	0.00895
27206	0.00915
27216	0.00896
27227	0.00805
27237	0.00659
27247	0.00533
27257	0.00475
27267	0.00474
27278	0.00508
27288	0.0056
27300	0.0063
27311	0.00688
27322	0.00744
27333	0.00787
27343	0.00817
27354	0.00822
27366	0.00778
27377	0.00691
27387	0.00595
27397	0.00531
27408	0.00511
27418	0.00526
27428	0.00564
27440	0.00619
27451	0.00676
27461	0.0073
27472	0.00782
27482	0.00832
27493	0.00876
27504	0.00908
27515	0.00911
27526	0.00851
27536	0.00711
27547	0.00566
27557	0.00485
27567	0.00469
27577	0.00494
27587	0.00542
27598	0.00599
27608	0.00657
27619	0.00718
27630	0.00767
27641	0.00805
27652	0.00824
27662	0.00812
27673	0.00749
27684	0.00652
27694	0.00562
27705	0.00518
27715	0.00515
27725	0.0054
27736	0.00585
27748	0.00644
27758	0.00698
27768	0.00751
27779	0.00801
27789	0.00846
27799	0.00886
27810	0.00913
27820	0.00903
27831	0.00821
27842	0.00676
27852	0.00544
27862	0.00478
27872	0.00471
27883	0.00506
27894	0.00564
27905	0.00623
27915	0.00682
27925	0.00733
27937	0.00781
27947	0.00813
27958	0.00824
27969	0.00792
27979	0.00718
27990	0.00616
28001	0.00542
28011	0.00513
28022	0.00522
28033	0.00561
28045	0.00613
28055	0.0067
28066	0.00726
28077	0.00779
28088	0.0083
28099	0.00874
28109	0.00907
28120	0.00912
28131	0.00855
28141	0.00729
28151	0.0058
28162	0.0049
28172	0.00468
28182	0.00493
28192	0.00539
28205	0.00606
28215	0.00665
28226	0.00723
28237	0.0077
28247	0.00807
28258	0.00824
28268	0.00809
28279	0.00743
28290	0.00646
28301	0.00558
28311	0.00517
28321	0.00515
28332	0.00543
28343	0.0059
28355	0.00652
28365	0.00704
28376	0.00761
28387	0.00812
28397	0.00858
28407	0.00895
28417	0.00915
28428	0.00896
28438	0.00804
28449	0.00658
28459	0.00533
28469	0.00473
28480	0.00475
28490	0.00513
28501	0.0057
28512	0.00631
28522	0.00689
28534	0.00744
28544	0.00788
28555	0.00817
28565	0.00823
28576	0.00787
28587	0.00701
28598	0.00602
28608	0.00535
28618	0.00512
28628	0.00524
28638	0.00558
28649	0.00608
28660	0.00663
28671	0.00722
28682	0.00777
28692	0.00824
28702	0.00867
28712	0.00901
28723	0.00915
28733	0.00885
28743	0.00783
28754	0.00626
28764	0.0051
28775	0.00469
28785	0.00482
28795	0.00523
28805	0.00577
28817	0.00643
28827	0.00698
28838	0.0075
28848	0.00791
28858	0.00819
28869	0.00822
28880	0.0078
28891	0.00693
28901	0.00596
28912	0.00532
28922	0.00511
28932	0.00526
28942	0.00563
28954	0.00617
28965	0.00674
28975	0.00729
28986	0.00781
28997	0.00831
29007	0.00875
29018	0.00908
29029	0.00911
29040	0.00852
29051	0.00712
29061	0.00568
29071	0.00486
29081	0.00469
29091	0.00494
29102	0.00541
29112	0.00597
29122	0.00655
29133	0.00717
29144	0.00766
29155	0.00805
29166	0.00824
29176	0.00813
29187	0.0075
29198	0.00653
29209	0.00562
29219	0.00518
29229	0.00514
29239	0.0054
29250	0.00584
29261	0.00642
29272	0.00697
29282	0.0075
29293	0.008
29303	0.00845
29313	0.00886
29324	0.00913
29335	0.00903
29345	0.00823
29356	0.00678
29366	0.00545
29376	0.00478
29386	0.00471
29397	0.00505
29408	0.00563
29419	0.00621
29429	0.0068
29439	0.00732
29451	0.0078
29461	0.00813
29472	0.00824
29483	0.00793
29494	0.0072
29505	0.00617
29515	0.00542
29525	0.00513
29536	0.00522
29547	0.0056
29558	0.00612
29569	0.00668
29580	0.00725
29591	0.00779
29602	0.00829
29613	0.00874
29623	0.00907
29634	0.00912
29645	0.00856
29655	0.00731
29666	0.00581
29676	0.00491
29686	0.00468
29697	0.00492
29708	0.00545
29719	0.00604
29729	0.00663
29740	0.00722
29751	0.00769
29762	0.00807
29772	0.00824
29782	0.0081
29794	0.00745
29804	0.00647
29815	0.00559
29825	0.00517
29836	0.00515
29846	0.00542
29857	0.00588
29869	0.0065
29879	0.00703
29890	0.0076
29901	0.00812
29911	0.00858
29922	0.00894
29932	0.00915
29942	0.00896
29953	0.00806
29963	0.00659
29973	0.00534
29983	0.00475
29993	0.00473
30003	0.00508
30013	0.00559
30026	0.00629
30036	0.00687
30048	0.00743
30058	0.00787
30069	0.00817
30080	0.00822
30092	0.00779
30102	0.00692
30113	0.00595
30123	0.00532
30133	0.00511
30144	0.00526
30154	0.00563
30166	0.00618
30177	0.00675
30187	0.00729
30198	0.00782
30208	0.00832
30219	0.00876
30230	0.00908
30241	0.00911
30251	0.00851
30262	0.00711
30272	0.00567
30283	0.00485
30293	0.00469
30303	0.00494
30313	0.00542
30323	0.00598
30333	0.00656
30345	0.00717
30356	0.00767
30367	0.00805
30377	0.00824
30387	0.00812
30399	0.0075
30409	0.00652
30420	0.00562
30430	0.00518
30441	0.00515
30451	0.0054
30461	0.00584
30473	0.00643
30484	0.00698
30494	0.0075
30504	0.00801
30514	0.00846
30525	0.00886
30535	0.00913
30546	0.00903
30557	0.00822
30567	0.00677
30577	0.00544
30587	0.00478
30598	0.00471
30609	0.00505
30620	0.00564
30630	0.00622
30641	0.00681
30651	0.00733
30662	0.00781
30673	0.00813
30684	0.00824
30695	0.00792
30705	0.00719
30716	0.00616
30727	0.00542
30737	0.00513
30748	0.00522
30759	0.0056
30770	0.00613
30781	0.00669
30792	0.00726
30803	0.00779
30814	0.0083
30824	0.00874
30835	0.00907
30846	0.00912
30857	0.00856
30867	0.00729
30877	0.0058
30887	0.0049
30897	0.00468
30908	0.00492
30920	0.00546
30930	0.00605
30941	0.00664
30952	0.00722
30962	0.0077
30973	0.00807
30984	0.00824
30994	0.00809
31005	0.00744
31016	0.00647
31026	0.00559
31037	0.00517
31047	0.00515
31057	0.00543
31068	0.00589
31080	0.00651
31091	0.00704
31102	0.0076
31113	0.00812
31123	0.00858
31133	0.00895
31143	0.00915
31154	0.00896
31164	0.00805
31174	0.00658
31184	0.00533
31194	0.00474
31205	0.00474
31215	0.00508
31225	0.0056
31237	0.0063
31248	0.00688
31259	0.00744
31270	0.00788
31280	0.00817
31290	0.00823
31302	0.00788
31313	0.00702
31323	0.00603
31334	0.00535
31344	0.00512
31354	0.00523
31364	0.00558
31375	0.00607
31385	0.00662
31397	0.00722
31408	0.00777
31418	0.00824
31428	0.00867
31438	0.00901
31448	0.00915
31458	0.00885
31469	0.00784
31479	0.00626
31490	0.0051
31501	0.00469
31511	0.00482
31521	0.00523
31531	0.00577
31542	0.00642
31553	0.00698
31563	0.00749
31574	0.00791
31584	0.00819
31594	0.00822
31606	0.0078
31616	0.00693
31627	0.00597
31637	0.00532
31647	0.00511
31658	0.00526
31668	0.00562
31680	0.00617
31690	0.00673
31701	0.00728
31712	0.00781
31722	0.00831
31733	0.00875
31744	0.00908
31755	0.00911
31766	0.00853
31776	0.00726
31786	0.00577
31796	0.00489
31806	0.00468
31817	0.00493
31827	0.00541
31837	0.00596
31847	0.00654
31859	0.00716
31870	0.00766
31881	0.00805
31891	0.00824
31903	0.00807
31914	0.0074
31925	0.00644
31935	0.00557
31945	0.00516
31956	0.00516
31966	0.00544
31977	0.00592
31990	0.00655
32002	0.00717
32012	0.00768
32022	0.00818
32033	0.00862
32043	0.00898
32053	0.00915
32064	0.00888
32074	0.00789
32084	0.00643
32095	0.00518
32105	0.0047
32115	0.00478
32126	0.0052
32138	0.00582
32150	0.0065
32162	0.00714
32173	0.00765
32183	0.00804
32194	0.00824
32206	0.00809
32217	0.00743
32227	0.00646
32238	0.00558
32248	0.00517
32259	0.00516
32269	0.00543
32280	0.0059
32292	0.00652
32302	0.00705
32313	0.00761
32324	0.00813
32335	0.00858
32345	0.00895
32355	0.00915
32365	0.00896
32376	0.00804
32386	0.00657
32396	0.00532
32407	0.00473
32417	0.00476
32428	0.00513
32438	0.0057
32449	0.00631
32460	0.00689
32471	0.00745
32481	0.00788
32492	0.00817
32502	0.00823
32513	0.00787
32524	0.00701
32535	0.00602
32545	0.00535
32555	0.00512
32566	0.00524
32576	0.00558
32586	0.00608
32597	0.00663
32609	0.00722
32620	0.00777
32630	0.00824
32640	0.00867
32650	0.00901
32660	0.00915
32670	0.00884
32680	0.00783
32691	0.00625
32701	0.0051
32712	0.00469
32722	0.00482
32732	0.00523
32743	0.00577
32754	0.00643
32764	0.00699
32775	0.0075
32785	0.00791
32796	0.00819
32806	0.00822
32817	0.00779
32828	0.00692
32839	0.00596
32849	0.00532
32859	0.00511
32869	0.00526
32880	0.00563
32891	0.00618
32902	0.00674
32913	0.00729
32923	0.00781
32934	0.00831
32945	0.00875
32955	0.00908
32966	0.00911
32977	0.00852
32988	0.00712
32998	0.00567
33008	0.00485
33019	0.00469
33029	0.00494
33039	0.00541
33049	0.00597
33059	0.00655
33071	0.00717
33082	0.00766
33092	0.00805
33103	0.00824
33113	0.00813
33124	0.0075
33135	0.00653
33146	0.00562
33156	0.00518
33167	0.00515
33177	0.0054
33187	0.00584
33199	0.00642
33209	0.00697
33220	0.0075
33230	0.008
33240	0.00846
33250	0.00886
33261	0.00913
33272	0.00903
33283	0.00823
33293	0.00678
33303	0.00545
33313	0.00478
33324	0.00471
33334	0.00505
33346	0.00563
33356	0.00621
33367	0.0068
33377	0.00732
33388	0.0078
33399	0.00813
33410	0.00824
33421	0.00793
33431	0.0072
33442	0.00617
33452	0.00542
33462	0.00513
33473	0.00522
33485	0.0056
33496	0.00612
33507	0.00668
33518	0.00725
33528	0.00779
33539	0.0083
33550	0.00874
33561	0.00907
33572	0.00912
33582	0.00856
33592	0.0073
33603	0.00581
33613	0.0049
33623	0.00468
33634	0.00492
33645	0.00545
33656	0.00604
33666	0.00663
33678	0.00722
33688	0.00769
33699	0.00807
33709	0.00824
33720	0.0081
33731	0.00744
33741	0.00647
33752	0.00559
33762	0.00517
33773	0.00515
33783	0.00542
33794	0.00589
33806	0.0065
33816	0.00703
33827	0.0076
33838	0.00812
33849	0.00858
33859	0.00895
33869	0.00915
33879	0.00896
33890	0.00805
33900	0.00659
33910	0.00533
33920	0.00475
33930	0.00473
33941	0.00508
33951	0.00559
33963	0.00629
33974	0.00688
33985	0.00744
33996	0.00787
34006	0.00817
34017	0.00822
34029	0.00778
34040	0.00692
34050	0.00595
34060	0.00532
34071	0.00511
34081	0.00526
34091	0.00563
34103	0.00619
34114	0.00675
34124	0.0073
34135	0.00782
34145	0.00832
34156	0.00876
34167	0.00908
34178	0.00911
34189	0.00851
34199	0.00711
34210	0.00567
34220	0.00485
34230	0.00469
34240	0.00494
34250	0.00542
34261	0.00598
34271	0.00656
34282	0.00718
34293	0.00767
34304	0.00805
34315	0.00824
34325	0.00812
34336	0.00749
34347	0.00652
34357	0.00562
34368	0.00518
34378	0.00515
34388	0.0054
34399	0.00585
34410	0.00643
34421	0.00698
34431	0.00751
34442	0.00801
34452	0.00846
34462	0.00886
34473	0.00913
34483	0.00903
34494	0.00822
34505	0.00677
34515	0.00544
34525	0.00478
34535	0.00471
34546	0.00506
34557	0.00564
34568	0.00622
34578	0.00682
34588	0.00733
34599	0.00781
34610	0.00813
34621	0.00824
34632	0.00792
34642	0.00719
34653	0.00616
34664	0.00542
34674	0.00513
34685	0.00522
34696	0.00561
34707	0.00613
34718	0.00669
34729	0.00726
34740	0.00779
34751	0.0083
34762	0.00874
34772	0.00907
34783	0.00912
34794	0.00855
34804	0.00729
34814	0.0058
34825	0.0049
34835	0.00468
34845	0.00492
34857	0.00546
34867	0.00605
34878	0.00664
34889	0.00723
34900	0.0077
34910	0.00807
34921	0.00824
34931	0.00809
34942	0.00743
34953	0.00646
34964	0.00559
34974	0.00517
34984	0.00515
34995	0.00543
35006	0.00589
35018	0.00651
35028	0.00704
35039	0.00761
35050	0.00812
35060	0.00858
35070	0.00895
35080	0.00915
35091	0.00896
35101	0.00804
35112	0.00658
35122	0.00533
35132	0.00473
35143	0.00475
35153	0.00513
35164	0.00569
35175	0.0063
35185	0.00689
35197	0.00744
35207	0.00788
35218	0.00817
35228	0.00823
35239	0.00787
35250	0.00702
35261	0.00603
35271	0.00535
35281	0.00512
35291	0.00524
35301	0.00558
35312	0.00608
35323	0.00662
35334	0.00722
35345	0.00777
35355	0.00824
35365	0.00867
35375	0.00901
35386	0.00915
35396	0.00885
35406	0.00784
35417	0.00626
35427	0.0051
35438	0.00469
35448	0.00482
35458	0.00523
35468	0.00577
35480	0.00642
35490	0.00698
35501	0.00749
35511	0.00791
35521	0.00819
35532	0.00822
35543	0.0078
35554	0.00693
35564	0.00596
35575	0.00532
35585	0.00511
35595	0.00526
35605	0.00563
35617	0.00617
35628	0.00673
35638	0.00728
35649	0.00781
35660	0.00831
35670	0.00875
35681	0.00908
35692	0.00911
35703	0.00852
35713	0.00725
35723	0.00577
35733	0.00489
35743	0.00468
35754	0.00494
35764	0.00541
35775	0.00597
35785	0.00654
35796	0.00716
35807	0.00766
35818	0.00805
35829	0.00824
35839	0.00813
35850	0.00751
35861	0.00653
35872	0.00563
35882	0.00518
35892	0.00514
35902	0.0054
35913	0.00583
35924	0.00641
35935	0.00696
35945	0.0075
35956	0.008
35966	0.00845
35976	0.00886
35987	0.00913
35998	0.00904
36008	0.00823
36019	0.00678
36029	0.00545
36039	0.00478
36049	0.00471
36060	0.00505
36071	0.00563
36082	0.0062
36092	0.0068
36102	0.00732
36114	0.0078
36124	0.00813
36135	0.00824
36146	0.00794
36157	0.0072
36168	0.00617
36178	0.00542
36188	0.00513
36199	0.00522
36210	0.0056
36221	0.00611
36232	0.00667
36243	0.00725
36254	0.00779
36265	0.00829
36276	0.00874
36286	0.00907
36297	0.00912
36308	0.00857
36318	0.00731
36329	0.00581
36339	0.00491
36349	0.00468
36360	0.00492
36371	0.00545
36381	0.00603
36392	0.00662
36403	0.00721
36414	0.00769
36425	0.00807
36435	0.00824
36445	0.0081
36457	0.00745
36467	0.00648
36478	0.00559
36488	0.00517
36499	0.00515
36509	0.00542
36520	0.00588
36532	0.00649
36542	0.00702
36553	0.0076
36564	0.00812
36574	0.00858
36585	0.00894
36595	0.00915
36605	0.00897
36616	0.00806
36626	0.0066
36636	0.00534
36646	0.00475
36656	0.00473
36666	0.00507
36676	0.00559
36689	0.00628
36699	0.00687
36711	0.00743
36721	0.00787
36732	0.00817
36743	0.00822
36755	0.00779
36765	0.00692
36776	0.00596
36786	0.00532
36796	0.00511
36807	0.00526
36817	0.00563
36828	0.00618
36839	0.00675
36850	0.00729
36860	0.00781
36871	0.00831
36882	0.00876
36893	0.00908
36904	0.00911
36914	0.00851
36925	0.00712
36935	0.00567
36946	0.00485
36956	0.00469
36966	0.00494
36976	0.00541
36986	0.00598
36996	0.00655
37008	0.00717
37019	0.00766
37030	0.00805
37040	0.00824
37050	0.00812
37062	0.0075
37072	0.00652
37083	0.00562
37093	0.00518
37104	0.00515
37114	0.0054
37124	0.00584
37136	0.00642
37147	0.00697
37157	0.0075
37167	0.008
37177	0.00846
37188	0.00886
37198	0.00913
37209	0.00903
37220	0.00822
37230	0.00677
37240	0.00544
37250	0.00478
37261	0.00471
37272	0.00505
37283	0.00564
37293	0.00621
37304	0.00681
37314	0.00732
37325	0.0078
37336	0.00813
37347	0.00824
37358	0.00793
37368	0.00719
37379	0.00617
37390	0.00542
37400	0.00513
37411	0.00522
37422	0.0056
37433	0.00612
37444	0.00668
37455	0.00725
37466	0.00779
37477	0.0083
37487	0.00874
37498	0.00907
37509	0.00912
37520	0.00856
37530	0.0073
37540	0.0058
37550	0.0049
37560	0.00468
37571	0.00492
37583	0.00545
37593	0.00604
37604	0.00663
37615	0.00722
37625	0.00769
37636	0.00807
37647	0.00824
37657	0.00809
37668	0.00744
37679	0.00647
37689	0.00559
37700	0.00517
37710	0.00515
37720	0.00543
37731	0.00589
37743	0.0065
37754	0.00703
37765	0.0076
37776	0.00812
37786	0.00858
37796	0.00895
37806	0.00915
37817	0.00896
37827	0.00805
37837	0.00659
37847	0.00533
37857	0.00475
37868	0.00474
37878	0.00508
37888	0.0056
37900	0.00629
37911	0.00688
37922	0.00744
37933	0.00787
37943	0.00817
37955	0.00822
37966	0.00778
37977	0.00691
37987	0.00595
37998	0.00531
38008	0.00511
38018	0.00526
38028	0.00564
38040	0.00619
38051	0.00676
38062	0.0073
38072	0.00782
38083	0.00832
38093	0.00876
38104	0.00908
38115	0.00911
38126	0.00851
38137	0.00711
38147	0.00566
38157	0.00485
38167	0.00469
38177	0.00494
38188	0.00542
38198	0.00599
38208	0.00657
38220	0.00718
38230	0.00767
38241	0.00805
38252	0.00824
38262	0.00812
38273	0.00749
38284	0.00652
38295	0.00562
38305	0.00518
38315	0.00515
38325	0.0054
38336	0.00585
38348	0.00643
38358	0.00698
38369	0.00751
38379	0.00801
38389	0.00846
38399	0.00886
38410	0.00913
38421	0.00903
38431	0.00822
38442	0.00676
38452	0.00544
38462	0.00478
38472	0.00471
38483	0.00506
38495	0.00564
38505	0.00623
38516	0.00682
38526	0.00733
38537	0.00781
38547	0.00813
38558	0.00824
38570	0.00792
38580	0.00718
38591	0.00616
38601	0.00542
38611	0.00513
38622	0.00522
38634	0.00561
38645	0.00613
38656	0.00669
38667	0.00726
38677	0.00779
38688	0.0083
38699	0.00874
38710	0.00907
38720	0.00912
38731	0.00855
38741	0.00729
38752	0.0058
38762	0.0049
38772	0.00468
38783	0.00492
38794	0.00546
38805	0.00605
38815	0.00665
38826	0.00723
38837	0.0077
38848	0.00807
38858	0.00824
38869	0.00809
38880	0.00743
38890	0.00646
38901	0.00558
38911	0.00517
38922	0.00515
38932	0.00543
38943	0.0059
38955	0.00651
38965	0.00704
38976	0.00761
38987	0.00812
38998	0.00858
39008	0.00895
39018	0.00915
39028	0.00896
39039	0.00804
39049	0.00658
39059	0.00533
39070	0.00473
39080	0.00475
39090	0.00513
39101	0.00569
39112	0.00631
39123	0.00689
39134	0.00744
39144	0.00788
39155	0.00817
39165	0.00823
39176	0.00787
39187	0.00701
39198	0.00603
39208	0.00535
39218	0.00512
39228	0.00524
39239	0.00558
39249	0.00608
39260	0.00663
39271	0.00722
39282	0.00777
39292	0.00824
39303	0.00867
39313	0.00901
39323	0.00915
39333	0.00885
39343	0.00784
39354	0.00626
39364	0.0051
39375	0.00469
39385	0.00482
39395	0.00523
39405	0.00577
39417	0.00642
39427	0.00698
39438	0.00749
39448	0.00791
39459	0.00819
39469	0.00822
39480	0.0078
39491	0.00693
39501	0.00596
39512	0.00532
39522	0.00511
39532	0.00526
39543	0.00563
39554	0.00617
39565	0.00674
39576	0.00729
39586	0.00781
39597	0.00831
39608	0.00875
39618	0.00908
39629	0.00911
39640	0.00852
39651	0.00713
39661	0.00568
39671	0.00486
39682	0.00469
39692	0.00494
39702	0.00541
39712	0.00597
39722	0.00654
39734	0.00716
39745	0.00766
39755	0.00805
39766	0.00824
39776	0.00813
39787	0.00751
39798	0.00653
39809	0.00563
39819	0.00518
39829	0.00514
39840	0.0054
39850	0.00583
39862	0.00641
39872	0.00696
39883	0.0075
39893	0.008
39903	0.00845
39913	0.00886
39924	0.00913
39935	0.00904
39946	0.00823
39956	0.00678
39966	0.00545
39976	0.00478
39987	0.00471
39997	0.00505
40009	0.00563
40019	0.0062
40030	0.0068
40040	0.00732
40051	0.0078
40061	0.00813
40072	0.00824
40084	0.00793
40094	0.0072
40105	0.00617
40115	0.00542
40125	0.00513
40136	0.00522
40148	0.0056
40159	0.00612
40170	0.00667
40181	0.00725
40191	0.00779
40202	0.00829
40213	0.00874
40224	0.00907
40235	0.00912
40245	0.00857
40255	0.00731
40266	0.00581
40276	0.00491
40286	0.00468
40297	0.00492
40308	0.00545
40319	0.00604
40329	0.00662
40340	0.00721
40351	0.00769
40362	0.00807
40372	0.00824
40383	0.0081
40394	0.00745
40404	0.00648
40415	0.00559
40425	0.00517
40436	0.00515
40446	0.00542
40457	0.00588
40469	0.00649
40479	0.00703
40490	0.0076
40501	0.00812
40512	0.00858
40522	0.00894
40532	0.00915
40542	0.00897
40553	0.00806
40563	0.0066
40573	0.00534
40583	0.00475
40593	0.00473
40604	0.00508
40614	0.00559
40626	0.00628
40637	0.00687
40648	0.00743
40658	0.00787
40669	0.00817
40680	0.00822
40692	0.00779
40703	0.00692
40713	0.00596
40723	0.00532
40733	0.00511
40744	0.00526
40754	0.00563
40766	0.00618
40777	0.00675
40787	0.00729
40798	0.00782
40808	0.00831
40819	0.00876
40830	0.00908
40841	0.00911
40852	0.00851
40862	0.00712
40873	0.00567
40883	0.00485
40893	0.00469
40903	0.00494
40913	0.00541
40923	0.00598
40934	0.00656
40945	0.00717
40956	0.00766
40967	0.00805
40978	0.00824
40988	0.00812
40999	0.0075
41010	0.00652
41020	0.00562
41031	0.00518
41041	0.00515
41051	0.0054
41062	0.00584
41073	0.00643
41084	0.00697
41094	0.0075
41105	0.008
41115	0.00846
41125	0.00886
41136	0.00913
41146	0.00903
41157	0.00822
41168	0.00677
41178	0.00544
41188	0.00478
41198	0.00471
41209	0.00505
41220	0.00564
41231	0.00622
41241	0.00681
41251	0.00732
41262	0.0078
41273	0.00813
41284	0.00824
41295	0.00793
41305	0.00719
41316	0.00616
41327	0.00542
41337	0.00513
41348	0.00522
41359	0.0056
41370	0.00612
41381	0.00668
41392	0.00725
41403	0.00779
41414	0.0083
41425	0.00874
41435	0.00907
41446	0.00912
41457	0.00856
41467	0.0073
41477	0.0058
41488	0.0049
41498	0.00468
41508	0.00492
41520	0.00545
41530	0.00605
41541	0.00664
41552	0.00722
41563	0.00769
41573	0.00807
41584	0.00824
41594	0.00809
41605	0.00744
41616	0.00647
41627	0.00559
41637	0.00517
41647	0.00515
41658	0.00543
41668	0.00589
41681	0.0065
41691	0.00704
41702	0.0076
41713	0.00812
41723	0.00858
41733	0.00895
41743	0.00915
41754	0.00896
41764	0.00805
41775	0.00659
41785	0.00533
41795	0.00474
41805	0.00474
41815	0.00508
41825	0.0056
41838	0.0063
41848	0.00688
41859	0.00744
41870	0.00787
41881	0.00817
41892	0.00822
41904	0.00778
41914	0.00691
41925	0.00595
41935	0.00531
41945	0.00511
41955	0.00526
41966	0.00564
41977	0.00619
41988	0.00676
41999	0.0073
42009	0.00782
42020	0.00832
42031	0.00876
42041	0.00908
42052	0.00911
42063	0.00851
42074	0.00711
42084	0.00566
42094	0.00485
42105	0.00469
42115	0.00494
42125	0.00542
42135	0.00599
42145	0.00657
42157	0.00718
42168	0.00767
42179	0.00805
42189	0.00824
42199	0.00812
42210	0.00749
42221	0.00651
42232	0.00562
42242	0.00518
42253	0.00515
42263	0.0054
42273	0.00585
42285	0.00644
42296	0.00698
42306	0.00751
42316	0.00801
42326	0.00846
42336	0.00886
42347	0.00913
42358	0.00903
42369	0.00821
42379	0.00676
42389	0.00544
42399	0.00478
42410	0.00471
42420	0.00506
42432	0.00564
42442	0.00623
42453	0.00682
42463	0.00733
42474	0.00781
42485	0.00813
42496	0.00824
42507	0.00792
42517	0.00718
42528	0.00616
42538	0.00542
42548	0.00513
42559	0.00522
42571	0.00561
42582	0.00613
42593	0.0067
42604	0.00726
42615	0.00779
42625	0.0083
42636	0.00874
42647	0.00907
42658	0.00912
42668	0.00855
42678	0.00729
42689	0.0058
42699	0.0049
42709	0.00468
42720	0.00493
42730	0.00539
42742	0.00606
42753	0.00665
42764	0.00723
42774	0.0077
42785	0.00807
42796	0.00824
42806	0.00809
42817	0.00743
42827	0.00646
42838	0.00558
42848	0.00517
42859	0.00515
42869	0.00543
42880	0.0059
42892	0.00652
42902	0.00704
42914	0.00761
42924	0.00812
42935	0.00858
42945	0.00895
42955	0.00915
42965	0.00896
42976	0.00804
42986	0.00658
42996	0.00533
43007	0.00473
43017	0.00475
43028	0.00513
43039	0.00569
43049	0.00631
43060	0.00689
43071	0.00744
43082	0.00788
43092	0.00817
43102	0.00823
43113	0.00787
43125	0.00701
43135	0.00602
43145	0.00535
43156	0.00512
43166	0.00524
43176	0.00558
43187	0.00608
43197	0.00663
43209	0.00722
43220	0.00777
43230	0.00824
43240	0.00867
43250	0.00901
43260	0.00915
43270	0.00885
43280	0.00783
43291	0.00626
43302	0.0051
43312	0.00469
43323	0.00482
43333	0.00523
43343	0.00577
43354	0.00643
43365	0.00698
43375	0.0075
43385	0.00791
43396	0.00819
43406	0.00822
43418	0.0078
43428	0.00693
43439	0.00596
43449	0.00532
43459	0.00511
43469	0.00526
43480	0.00563
43491	0.00617
43502	0.00674
43513	0.00729
43523	0.00781
43534	0.00831
43545	0.00875
43556	0.00908
43566	0.00911
43577	0.00852
43588	0.00712
43598	0.00568
43609	0.00486
43619	0.00469
43629	0.00494
43639	0.00541
43649	0.00597
43659	0.00654
43671	0.00717
43682	0.00766
43693	0.00805
43703	0.00824
43713	0.00813
43725	0.00751
43735	0.00653
43746	0.00562
43756	0.00518
43767	0.00514
43777	0.0054
43787	0.00584
43799	0.00642
43810	0.00697
43820	0.0075
43830	0.008
43840	0.00845
43851	0.00886
43861	0.00913
43872	0.00903
43883	0.00823
43893	0.00678
43903	0.00545
43913	0.00478
43924	0.00471
43935	0.00505
43946	0.00563
43956	0.00621
43967	0.0068
43977	0.00732
43988	0.0078
43999	0.00813
44010	0.00824
44021	0.00793
44031	0.0072
44042	0.00617
44053	0.00542
44063	0.00513
44074	0.00522
44085	0.0056
44096	0.00612
44107	0.00667
44118	0.00725
44129	0.00779
44140	0.00829
44150	0.00874
44161	0.00907
44172	0.00912
44183	0.00856
44193	0.00731
44203	0.00581
44213	0.00491
44223	0.00468
44234	0.00492
44245	0.00545
44256	0.00604
44266	0.00663
44278	0.00722
44288	0.00769
44299	0.00807
44310	0.00824
44320	0.0081
44331	0.00745
44342	0.00648
44352	0.00559
44362	0.00517
44373	0.00515
44383	0.00542
44394	0.00588
44406	0.00649
44416	0.00703
44428	0.0076
44438	0.00812
44449	0.00858
44459	0.00894
44469	0.00915
44480	0.00896
44490	0.00806
44500	0.00659
44510	0.00534
44520	0.00475
44531	0.00473
44541	0.00508
44551	0.00559
44563	0.00629
44574	0.00687
44585	0.00743
44596	0.00787
44606	0.00817
44618	0.00822
44629	0.00779
44640	0.00692
44650	0.00596
44661	0.00532
44671	0.00511
44681	0.00526
44691	0.00563
44703	0.00618
44714	0.00675
44725	0.00729
44735	0.00782
44746	0.00832
44756	0.00876
44767	0.00908
44778	0.00911
44789	0.00851
44800	0.00711
44810	0.00567
44820	0.00485
44830	0.00469
44840	0.00494
44851	0.00541
44861	0.00598
44871	0.00656
44883	0.00717
44893	0.00767
44904	0.00805
44915	0.00824
44925	0.00812
44936	0.0075
44947	0.00652
44958	0.00562
44968	0.00518
44978	0.00515
44988	0.0054
44999	0.00584
45011	0.00643
45021	0.00698
45032	0.0075
45042	0.00801
45052	0.00846
45062	0.00886
45073	0.00913
45084	0.00903
45094	0.00822
45105	0.00677
45115	0.00544
45125	0.00478
45135	0.00471
45146	0.00505
45158	0.00564
45168	0.00622
45178	0.00681
45189	0.00733
45200	0.00781
45210	0.00813
45221	0.00824
45233	0.00793
45243	0.00719
45254	0.00616
45264	0.00542
45274	0.00513
45285	0.00522
45296	0.0056
45308	0.00613
45319	0.00669
45329	0.00725
45340	0.00779
45351	0.0083
45362	0.00874
45373	0.00907
45383	0.00912
45394	0.00856
45404	0.0073
45415	0.0058
45425	0.0049
45435	0.00468
45446	0.00492
45457	0.00545
45468	0.00605
45478	0.00664
45489	0.00722
45500	0.00769
45511	0.00807
45521	0.00824
45532	0.00809
45543	0.00744
45553	0.00647
45564	0.00559
45574	0.00517
45585	0.00515
45595	0.00543
45606	0.00589
45618	0.00651
45628	0.00704
45639	0.0076
45650	0.00812
45660	0.00858
45671	0.00895
45681	0.00915
45691	0.00896
45702	0.00805
45712	0.00658
45722	0.00533
45732	0.00474
45742	0.00474
45752	0.00508
45763	0.0056
45775	0.0063
45786	0.00688
45797	0.00744
45807	0.00787
45818	0.00817
45828	0.00823
45839	0.00788
45850	0.00702
45861	0.00603
45871	0.00535
45881	0.00512
45891	0.00523
45901	0.00557
45912	0.00607
45923	0.00662
45934	0.00721
45945	0.00777
45955	0.00824
45966	0.00867
45976	0.00901
45986	0.00915
45996	0.00885
46006	0.00784
46017	0.00626
46027	0.0051
46038	0.00469
46048	0.00482
46058	0.00523
46068	0.00576
46080	0.00642
46090	0.00697
46101	0.00749
46111	0.00791
46122	0.00819
46132	0.00822
46143	0.0078
46154	0.00694
46164	0.00597
46175	0.00532
46185	0.00511
46195	0.00526
46206	0.00562
46217	0.00616
46228	0.00673
46239	0.00728
46249	0.00781
46260	0.00831
46271	0.00875
46281	0.00908
46292	0.00911
46303	0.00853
46313	0.00726
46323	0.00577
46334	0.00489
46344	0.00468
46355	0.00493
46365	0.0054
46375	0.00596
46385	0.00653
46397	0.00716
46407	0.00766
46418	0.00805
46429	0.00824
46441	0.00807
46452	0.0074
46462	0.00644
46473	0.00557
46483	0.00516
46493	0.00516
46504	0.00544
46515	0.00592
46527	0.00655
46539	0.00717
46549	0.00768
46560	0.00818
46570	0.00862
46580	0.00898
46590	0.00915
46601	0.00888
46611	0.0079
46621	0.00643
46632	0.00518
46643	0.0047
46653	0.00478
46664	0.0052
46675	0.00582
46687	0.0065
46699	0.00714
46710	0.00764
46721	0.00804
46732	0.00824
46743	0.00809
46754	0.00743
46765	0.00646
46775	0.00558
46786	0.00517
46796	0.00515
46806	0.00543
46817	0.0059
46830	0.00652
46840	0.00705
46851	0.00761
46862	0.00812
46872	0.00858
46882	0.00895
46892	0.00915
46903	0.00896
46913	0.00804
46923	0.00658
46933	0.00533
46944	0.00473
46955	0.00475
46965	0.00513
46976	0.0057
46987	0.00631
46997	0.00689
47008	0.00744
47019	0.00788
47029	0.00817
47039	0.00823
47051	0.00787
47062	0.00701
47072	0.00602
47083	0.00535
47093	0.00512
47103	0.00524
47113	0.00558
47124	0.00608
47135	0.00663
47146	0.00722
47157	0.00777
47167	0.00824
47177	0.00867
47187	0.00901
47197	0.00915
47208	0.00884
47218	0.00783
47228	0.00625
47239	0.0051
47250	0.00469
47260	0.00482
47270	0.00523
47280	0.00577
47292	0.00643
47302	0.00698
47312	0.0075
47323	0.00791
47333	0.00819
47343	0.00822
47355	0.00779
47366	0.00693
47376	0.00596
47386	0.00532
47396	0.00511
47407	0.00526
47417	0.00563
47429	0.00617
47440	0.00674
47450	0.00729
47461	0.00781
47471	0.00831
47482	0.00875
47493	0.00908
47504	0.00911
47515	0.00852
47525	0.00712
47536	0.00568
47546	0.00486
47556	0.00469
47566	0.00494
47576	0.00541
47586	0.00597
47597	0.00655
47608	0.00717
47619	0.00766
47630	0.00805
47641	0.00824
47651	0.00813
47662	0.0075
47673	0.00653
47683	0.00562
47694	0.00518
47704	0.00514
47714	0.0054
47725	0.00584
47736	0.00642
47747	0.00697
47757	0.0075
47768	0.008
47778	0.00845
47788	0.00886
47799	0.00913
47809	0.00903
47820	0.00823
47831	0.00678
47841	0.00545
47851	0.00478
47861	0.00471
47872	0.00505
47883	0.00563
47893	0.00621
47904	0.0068
47914	0.00732
47925	0.0078
47936	0.00813
47947	0.00824
47958	0.00793
47968	0.0072
47979	0.00617
47990	0.00542
48000	0.00513
48011	0.00522
48022	0.0056
48033	0.00612
48044	0.00668
48055	0.00725
48066	0.00779
48077	0.00829
48088	0.00874
48098	0.00907
48109	0.00912
48120	0.00856
48130	0.0073
48140	0.00581
48151	0.00491
48161	0.00468
48171	0.00492
48183	0.00545
48193	0.00604
48204	0.00663
48215	0.00722
48225	0.00769
48236	0.00807
48247	0.00824
48257	0.0081
48268	0.00744
48279	0.00647
48290	0.00559
48300	0.00517
48310	0.00515
48321	0.00542
48331	0.00588
48344	0.0065
48354	0.00703
48365	0.0076
48376	0.00812
48386	0.00858
48396	0.00894
48406	0.00915
48417	0.00896
48427	0.00806
48437	0.00659
48448	0.00534
48458	0.00475
48468	0.00473
48478	0.00508
48488	0.00559
48501	0.00629
48511	0.00687
48522	0.00743
48533	0.00787
48543	0.00817
48555	0.00822
48566	0.00779
48577	0.00692
48588	0.00595
48598	0.00532
48608	0.00511
48618	0.00526
48629	0.00563
48640	0.00618
48651	0.00675
48662	0.0073
48672	0.00782
48683	0.00832
48694	0.00876
48704	0.00908
48715	0.00911
48726	0.00851
48737	0.00711
48747	0.00567
48757	0.00485
48768	0.00469
48778	0.00494
48788	0.00542
48798	0.00598
48808	0.00656
48820	0.00717
48831	0.00767
48841	0.00805
48852	0.00824
48862	0.00812
48873	0.00749
48884	0.00652
48895	0.00562
48905	0.00518
48916	0.00515
48926	0.0054
48936	0.00584
48948	0.00643
48958	0.00698
48969	0.0075
48979	0.00801
48989	0.00846
48999	0.00886
49010	0.00913
49021	0.00903
49032	0.00822
49042	0.00677
49052	0.00544
49062	0.00478
49073	0.00471
49083	0.00505
49095	0.00564
49105	0.00622
49116	0.00681
49126	0.00733
49137	0.00781
49148	0.00813
49159	0.00824
49170	0.00792
49180	0.00719
49191	0.00616
49201	0.00542
49211	0.00513
49222	0.00522
49234	0.0056
49245	0.00613
49256	0.00669
49267	0.00726
49277	0.00779
49288	0.0083
49299	0.00874
49310	0.00907
49321	0.00912
49331	0.00856
49341	0.00729
49352	0.0058
49362	0.0049
49372	0.00468
49383	0.00492
49394	0.00546
49405	0.00605
49415	0.00664
49427	0.00722
49437	0.0077
49448	0.00807
49459	0.00824
49469	0.00809
49480	0.00744
49490	0.00647
49501	0.00559
49511	0.00517
49522	0.00515
49532	0.00543
49543	0.00589
49555	0.00651
49565	0.00704
49577	0.0076
49587	0.00812
49598	0.00858
49608	0.00895
49618	0.00915
49628	0.00896
49639	0.00805
49649	0.00658
49659	0.00533
49670	0.00473
49680	0.00475
49691	0.00513
49701	0.00569
49712	0.0063
49723	0.00688
49734	0.00744
49745	0.00788
49755	0.00817
49765	0.00823
49776	0.00788
49787	0.00702
49798	0.00603
49808	0.00535
49819	0.00512
49829	0.00523
49839	0.00558
49850	0.00607
49860	0.00662
49872	0.00721
49883	0.00777
49893	0.00824
49903	0.00867
49913	0.00901
49923	0.00915
49933	0.00885
49943	0.00784
49954	0.00626
49965	0.0051
49975	0.00469
49986	0.00482
49996	0.00523
50006	0.00576
50017	0.00642
50027	0.00698
50038	0.00749
50048	0.00791
50059	0.00819
50069	0.00822
50081	0.0078
50091	0.00693
50102	0.00597
50112	0.00532
50122	0.00511
50132	0.00526
50143	0.00562
50154	0.00617
50165	0.00673
50176	0.00728
50186	0.00781
50197	0.00831
50208	0.00875
50219	0.00908
50229	0.00911
50240	0.00853
50250	0.00726
50261	0.00577
50271	0.00489
50281	0.00468
50292	0.00493
50302	0.00541
50312	0.00596
50322	0.00654
50334	0.00716
50345	0.00766
50356	0.00805
50366	0.00824
50378	0.00807
50389	0.0074
50399	0.00644
50410	0.00557
50420	0.00516
50431	0.00516
50441	0.00544
50452	0.00592
50465	0.00655
50477	0.00717
50487	0.00768
50497	0.00818
50507	0.00862
50517	0.00898
50528	0.00915
50538	0.00888
50549	0.00789
50559	0.00643
50569	0.00518
50580	0.0047
50590	0.00478
50601	0.0052
50612	0.00582
50624	0.0065
50636	0.00714
50647	0.00765
50658	0.00804
50669	0.00824
50680	0.00809
50691	0.00743
50702	0.00646
50713	0.00558
50723	0.00517
50733	0.00516
50744	0.00543
50755	0.0059
50767	0.00652
50777	0.00705
50788	0.00761
50799	0.00812
50809	0.00858
50819	0.00895
50829	0.00915
50840	0.00896
50850	0.00804
50861	0.00657
50871	0.00532
50881	0.00473
50892	0.00476
50902	0.00513
50913	0.0057
50924	0.00631
50934	0.00689
50946	0.00745
50956	0.00788
50967	0.00817
50977	0.00823
50988	0.00787
50999	0.00701
51010	0.00602
51020	0.00535
51030	0.00512
51040	0.00524
51050	0.00558
51061	0.00608
51072	0.00663
51083	0.00722
51094	0.00777
51104	0.00824
51114	0.00867
51124	0.00901
51135	0.00915
51145	0.00884
51155	0.00783
51166	0.00625
51176	0.0051
51187	0.00469
51197	0.00482
51207	0.00523
51217	0.00577
51229	0.00643
51239	0.00698
51250	0.0075
51260	0.00791
51270	0.00819
51281	0.00822
51292	0.00779
51303	0.00693
51313	0.00596
51324	0.00532
51334	0.00511
51344	0.00526
51354	0.00563
51366	0.00618
51377	0.00674
51387	0.00729
51398	0.00781
51409	0.00831
51419	0.00875
51430	0.00908
51441	0.00911
51452	0.00852
51463	0.00712
51473	0.00567
51483	0.00485
51493	0.00469
51503	0.00494
51514	0.00541
51524	0.00597
51534	0.00655
51546	0.00717
51556	0.00766
51567	0.00805
51578	0.00824
51588	0.00813
51599	0.0075
51610	0.00653
51621	0.00562
51631	0.00518
51641	0.00514
51651	0.0054
51662	0.00584
51674	0.00642
51684	0.00697
51694	0.0075
51705	0.008
51715	0.00846
51725	0.00886
51736	0.00913
51747	0.00903
51757	0.00823
51768	0.00678
51778	0.00545
51788	0.00478
51798	0.00471
51809	0.00505
51820	0.00563
51831	0.00621
51841	0.0068
51852	0.00732
51863	0.0078
51873	0.00813
51884	0.00824
51895	0.00793
51906	0.0072
51917	0.00617
51927	0.00542
51937	0.00513
51948	0.00522
51959	0.0056
51971	0.00612
51981	0.00668
51992	0.00725
52003	0.00779
52014	0.0083
52025	0.00874
52035	0.00907
52046	0.00912
52057	0.00856
52067	0.0073
52078	0.00581
52088	0.0049
52098	0.00468
52109	0.00492
52120	0.00545
52131	0.00604
52141	0.00663
52152	0.00722
52163	0.00769
52174	0.00807
52184	0.00824
52194	0.0081
52206	0.00744
52216	0.00647
52227	0.00559
52237	0.00517
52248	0.00515
52258	0.00542
52269	0.00589
52281	0.0065
52291	0.00703
52302	0.0076
52313	0.00812
52323	0.00858
52334	0.00895
52344	0.00915
52354	0.00896
52365	0.00806
52375	0.00659
52385	0.00534
52395	0.00475
52405	0.00473
52415	0.00508
52425	0.00559
52438	0.00629
52448	0.00687
52460	0.00743
52470	0.00787
52481	0.00817
52492	0.00822
52504	0.00779
52514	0.00692
52525	0.00595
52535	0.00532
52545	0.00511
52556	0.00526
52566	0.00563
52578	0.00619
52589	0.00675
52599	0.0073
52610	0.00782
52620	0.00832
52631	0.00876
52642	0.00908
52653	0.00911
52663	0.00851
52674	0.00711
52684	0.00567
52695	0.00485
52705	0.00469
52715	0.00494
52725	0.00542
52735	0.00598
52745	0.00656
52757	0.00718
52768	0.00767
52779	0.00805
52789	0.00824
52799	0.00812
52811	0.00749
52821	0.00652
52832	0.00562
52842	0.00518
52853	0.00515
52863	0.0054
52873	0.00584
52885	0.00643
52896	0.00698
52906	0.0075
52916	0.00801
52926	0.00846
52937	0.00886
52947	0.00913
52958	0.00903
52969	0.00822
52979	0.00677
52989	0.00544
52999	0.00478
53010	0.00471
53021	0.00506
53032	0.00564
53042	0.00622
53053	0.00681
53063	0.00733
53074	0.00781
53085	0.00813
53096	0.00824
53107	0.00792
53117	0.00719
53128	0.00616
53139	0.00542
53149	0.00513
53160	0.00522
53171	0.0056
53182	0.00613
53193	0.00669
53204	0.00726
53215	0.00779
53226	0.0083
53236	0.00874
53247	0.00907
53258	0.00912
53269	0.00855
53279	0.00729
53289	0.0058
53299	0.0049
53309	0.00468
53320	0.00492
53332	0.00546
53342	0.00605
53353	0.00664
53364	0.00722
53374	0.0077
53385	0.00807
53396	0.00824
53406	0.00809
53417	0.00743
53428	0.00647
53438	0.00559
53449	0.00517
53459	0.00515
53469	0.00543
53480	0.00589
53492	0.00651
53503	0.00704
53514	0.0076
53525	0.00812
53535	0.00858
53545	0.00895
53555	0.00915
53566	0.00896
53576	0.00805
53586	0.00658
53596	0.00533
53607	0.00473
53618	0.00475
53628	0.00513
53639	0.00569
53649	0.0063
53660	0.00688
53671	0.00744
53682	0.00788
53692	0.00817
53702	0.00823
53714	0.00787
53725	0.00702
53735	0.00603
53746	0.00535
53756	0.00512
53766	0.00523
53776	0.00558
53787	0.00608
53797	0.00662
53809	0.00722
53820	0.00777
53830	0.00824
53840	0.00867
53850	0.00901
53860	0.00915
53870	0.00885
53881	0.00784
53891	0.00626
53902	0.0051
53913	0.00469
53923	0.00482
53933	0.00523
53943	0.00577
53954	0.00642
53965	0.00698
53975	0.00749
53986	0.00791
53996	0.00819
54006	0.00822
54018	0.0078
54028	0.00693
54039	0.00597
54049	0.00532
54059	0.00511
54070	0.00526
54080	0.00562
54092	0.00617
54102	0.00673
54113	0.00728
54124	0.00781
54134	0.00831
54145	0.00875
54156	0.00908
54167	0.00911
54178	0.00852
54188	0.00725
54198	0.00577
54208	0.00489
54218	0.00468
54229	0.00494
54239	0.00541
54249	0.00596
54259	0.00654
54271	0.00716
54282	0.00766
54293	0.00805
54303	0.00824
54315	0.00807
54326	0.0074
54337	0.00643
54347	0.00557
54357	0.00516
54368	0.00516
54378	0.00544
54389	0.00592
54402	0.00656
54414	0.00717
54424	0.00768
54434	0.00818
54445	0.00862
54455	0.00898
54465	0.00915
54476	0.00888
54486	0.00789
54496	0.00643
54507	0.00518
54517	0.0047
54527	0.00478
54538	0.0052
54550	0.00582
54562	0.0065
54574	0.00714
54585	0.00765
54595	0.00804
54606	0.00824
54618	0.00809
54629	0.00743
54639	0.00646
54650	0.00558
54660	0.00517
54671	0.00516
54681	0.00543
54692	0.0059
54704	0.00652
54714	0.00705
54725	0.00761
54736	0.00813
54747	0.00858
54757	0.00895
54767	0.00915
54777	0.00896
54788	0.00804
54798	0.00657
54808	0.00532
54819	0.00473
54829	0.00476
54839	0.00513
54850	0.0057
54861	0.00631
54872	0.00689
54883	0.00745
54893	0.00788
54904	0.00817
54914	0.00823
54925	0.00787
54936	0.00701
54947	0.00602
54957	0.00535
54967	0.00512
54977	0.00524
54988	0.00558
54998	0.00608
55009	0.00663
55021	0.00722
55031	0.00777
55041	0.00824
55052	0.00867
55062	0.00901
55072	0.00915
55082	0.00884
55092	0.00783
55103	0.00625
55113	0.0051
55124	0.00469
55134	0.00482
55144	0.00523
55155	0.00577
55166	0.00643
55176	0.00699
55187	0.0075
55197	0.00791
55208	0.00819
55218	0.00822
55229	0.00779
55240	0.00692
55250	0.00596
55261	0.00532
55271	0.00511
55281	0.00526
55292	0.00563
55303	0.00618
55314	0.00674
55325	0.00729
55335	0.00781
55346	0.00831
55357	0.00875
55367	0.00908
55378	0.00911
55389	0.00852
55400	0.00712
55410	0.00567
55420	0.00485
55430	0.00469
55441	0.00494
55451	0.00541
55461	0.00597
55471	0.00655
55483	0.00717
55494	0.00766
55504	0.00805
55515	0.00824
55525	0.00812
55536	0.0075
55547	0.00653
55558	0.00562
55568	0.00518
55578	0.00515
55589	0.0054
55599	0.00584
55611	0.00642
55621	0.00697
55632	0.0075
55642	0.008
55652	0.00846
55662	0.00886
55673	0.00913
55684	0.00903
55695	0.00823
55705	0.00678
55715	0.00545
55725	0.00478
55736	0.00471
55746	0.00505
55758	0.00563
55768	0.00621
55779	0.0068
55789	0.00732
55800	0.0078
55810	0.00813
55822	0.00824
55833	0.00793
55843	0.0072
55854	0.00617
55864	0.00542
55874	0.00513
55885	0.00522
55897	0.0056
55908	0.00612
55919	0.00668
55930	0.00725
55940	0.00779
55951	0.0083
55962	0.00874
55973	0.00907
55984	0.00912
55994	0.00856
56004	0.0073
56015	0.00581
56025	0.0049
56035	0.00468
56046	0.00492
56057	0.00545
56068	0.00604
56078	0.00663
56089	0.00722
56100	0.00769
56111	0.00807
56121	0.00824
56132	0.0081
56143	0.00744
56153	0.00647
56164	0.00559
56174	0.00517
56185	0.00515
56195	0.00542
56206	0.00589
56218	0.0065
56228	0.00703
56239	0.0076
56250	0.00812
56261	0.00858
56271	0.00895
56281	0.00915
56291	0.00896
56302	0.00805
56312	0.00659
56322	0.00533
56332	0.00475
56342	0.00473
56353	0.00508
56363	0.00559
56375	0.00629
56386	0.00687
56397	0.00744
56408	0.00787
56418	0.00817
56429	0.00822
56441	0.00778
56452	0.00692
56462	0.00595
56472	0.00532
56482	0.00511
56493	0.00526
56503	0.00563
56515	0.00619
56526	0.00675
56536	0.0073
56547	0.00782
56557	0.00832
56568	0.00876
56579	0.00908
56590	0.00911
56601	0.00851
56611	0.00711
56622	0.00567
56632	0.00485
56642	0.00469
56652	0.00494
56662	0.00542
56673	0.00598
56683	0.00656
56694	0.00718
56705	0.00767
56716	0.00805
56727	0.00824
56737	0.00812
56748	0.00749
56759	0.00652
56769	0.00562
56780	0.00518
56790	0.00515
56800	0.0054
56811	0.00585
56822	0.00643
56833	0.00698
56843	0.00751
56854	0.00801
56864	0.00846
56874	0.00886
56885	0.00913
56895	0.00903
56906	0.00822
56917	0.00677
56927	0.00544
56937	0.00478
56947	0.00471
56958	0.00506
56969	0.00564
56980	0.00622
56990	0.00682
57000	0.00733
57011	0.00781
57022	0.00813
57033	0.00824
57044	0.00792
57054	0.00719
57065	0.00616
57076	0.00542
57086	0.00513
57097	0.00522
57108	0.00561
57119	0.00613
57130	0.00669
57141	0.00726
57152	0.00779
57163	0.0083
57174	0.00874
57184	0.00907
57195	0.00912
57206	0.00855
57216	0.00729
57226	0.0058
57237	0.0049
57247	0.00468
57257	0.00492
57269	0.00546
57279	0.00605
57290	0.00664
57301	0.00723
57312	0.0077
57322	0.00807
57333	0.00824
57343	0.00809
57354	0.00743
57365	0.00646
57376	0.00559
57386	0.00517
57396	0.00515
57407	0.00543
57417	0.00589
57430	0.00651
57440	0.00704
57451	0.00761
57462	0.00812
57472	0.00858
57482	0.00895
57492	0.00915
57503	0.00896
57513	0.00804
57523	0.00658
57534	0.00533
57544	0.00473
57555	0.00475
57565	0.00513
57576	0.00569
57587	0.0063
57597	0.00688
57609	0.00744
57619	0.00788
57630	0.00817
57640	0.00823
57651	0.00787
57662	0.00702
57673	0.00603
57683	0.00535
57693	0.00512
57703	0.00524
57713	0.00558
57724	0.00608
57735	0.00662
57746	0.00722
57757	0.00777
57767	0.00824
57777	0.00867
57787	0.00901
57798	0.00915
57808	0.00885
57818	0.00784
57829	0.00626
57839	0.0051
57850	0.00469
57860	0.00482
57870	0.00523
57880	0.00577
57892	0.00642
57902	0.00698
57913	0.00749
57923	0.00791
57933	0.00819
57944	0.00822
57955	0.0078
57966	0.00693
57976	0.00596
57986	0.00532
57997	0.00511
58007	0.00526
58017	0.00563
58029	0.00617
58040	0.00673
58050	0.00728
58061	0.00781
58072	0.00831
58082	0.00875
58093	0.00908
58104	0.00911
58115	0.00852
58125	0.00725
58135	0.00577
58145	0.00489
58155	0.00468
58166	0.00494
58176	0.00541
58187	0.00596
58197	0.00654
58208	0.00716
58219	0.00766
58230	0.00805
58241	0.00824
58251	0.00813
58262	0.00751
58273	0.00653
58284	0.00563
58294	0.00518
58304	0.00514
58314	0.0054
58325	0.00583
58336	0.00641
58347	0.00696
58357	0.00749
58368	0.008
58378	0.00845
58388	0.00886
58399	0.00913
58410	0.00904
58420	0.00823
58431	0.00679
58441	0.00545
58451	0.00478
58461	0.00471
58472	0.00505
58483	0.00563
58494	0.0062
58504	0.0068
58514	0.00732
58526	0.0078
58536	0.00813
58547	0.00824
58558	0.00794
58569	0.0072
58579	0.00617
58590	0.00542
58600	0.00513
58611	0.00522
58622	0.0056
58633	0.00611
58644	0.00667
58655	0.00724
58666	0.00778
58677	0.00829
58688	0.00874
58698	0.00907
58709	0.00912
58720	0.00857
58730	0.00731
58741	0.00581
58751	0.00491
58761	0.00468
58772	0.00492
58783	0.00545
58793	0.00603
58804	0.00662
58815	0.00721
58826	0.00769
58836	0.00807
58847	0.00824
58857	0.0081
58868	0.00745
58879	0.00648
58890	0.00559
58900	0.00517
58910	0.00515
58921	0.00542
58932	0.00588
58944	0.00649
58954	0.00702
58965	0.0076
58976	0.00812
58986	0.00858
58997	0.00894
59007	0.00915
59017	0.00897
59028	0.00806
59038	0.0066
59048	0.00534
59058	0.00475
59068	0.00473
59078	0.00507
59088	0.00559
59101	0.00628
59111	0.00687
59123	0.00743
59133	0.00787
59144	0.00817
59155	0.00822
59167	0.00779
59177	0.00692
59188	0.00596
59198	0.00532
59208	0.00511
59218	0.00526
59229	0.00563
59240	0.00618
59251	0.00675
59262	0.00729
59272	0.00781
59283	0.00831
59294	0.00876
59305	0.00908
59315	0.00911
59326	0.00852
59337	0.00712
59347	0.00567
59358	0.00485
59368	0.00469
59378	0.00494
59388	0.00541
59398	0.00597
59408	0.00655
59420	0.00717
59431	0.00766
59442	0.00805
59452	0.00824
59462	0.00812
59474	0.0075
59484	0.00653
59495	0.00562
59505	0.00518
59516	0.00515
59526	0.0054
59536	0.00584
59548	0.00642
59559	0.00697
59569	0.0075
59579	0.008
59589	0.00846
59600	0.00886
59610	0.00913
59621	0.00903
59632	0.00823
59642	0.00678
59652	0.00545
59662	0.00478
59673	0.00471
59684	0.00505
59695	0.00563
59705	0.00621
59716	0.00681
59726	0.00732
59737	0.0078
59748	0.00813
59759	0.00824
59770	0.00793
59780	0.00719
59791	0.00617
59801	0.00542
59812	0.00513
59823	0.00522
59834	0.0056
59845	0.00612
59856	0.00668
59867	0.00725
59878	0.00779
59889	0.0083
59899	0.00874
59910	0.00907
59921	0.00912
59932	0.00856
59942	0.0073
59952	0.00581
59962	0.0049
59972	0.00468
59983	0.00492
59994	0.00545
60005	0.00604
60016	0.00663
60027	0.00722
60037	0.00769
60048	0.00807
60059	0.00824
60069	0.00809
60080	0.00744
60091	0.00647
60101	0.00559
60111	0.00517
60122	0.00515
60132	0.00542
60143	0.00589
60155	0.0065
60166	0.00703
60177	0.0076
60187	0.00812
60198	0.00858
60208	0.00895
60218	0.00915
60229	0.00896
60239	0.00805
60249	0.00659
60259	0.00533
60269	0.00475
60280	0.00473
60290	0.00508
60300	0.00559
60312	0.00629
60323	0.00688
60334	0.00744
60345	0.00787
60355	0.00817
60367	0.00822
60378	0.00778
60389	0.00691
60399	0.00595
60410	0.00531
60420	0.00511
60430	0.00526
60440	0.00564
60452	0.00619
60463	0.00676
60474	0.0073
60484	0.00782
60495	0.00832
60505	0.00876
60516	0.00908
60527	0.00911
60538	0.00851
60549	0.00711
60559	0.00567
60569	0.00485
60579	0.00469
60589	0.00494
60600	0.00542
60610	0.00598
60620	0.00656
60632	0.00718
60642	0.00767
60653	0.00805
60664	0.00824
60674	0.00812
60685	0.00749
60696	0.00652
60707	0.00562
60717	0.00518
60727	0.00515
60737	0.0054
60748	0.00585
60760	0.00643
60770	0.00698
60781	0.00751
60791	0.00801
60801	0.00846
60811	0.00886
60822	0.00913
60833	0.00903
60843	0.00822
60854	0.00677
60864	0.00544
60874	0.00478
60884	0.00471
60895	0.00506
60907	0.00564
60917	0.00622
60928	0.00682
60938	0.00733
60949	0.00781
60959	0.00813
60970	0.00824
60982	0.00792
60992	0.00719
61003	0.00616
61013	0.00542
61023	0.00513
61034	0.00522
61045	0.00561
61057	0.00613
61068	0.00669
61079	0.00726
61089	0.00779
61100	0.0083
61111	0.00874
61121	0.00907
61132	0.00912
61143	0.00855
61153	0.00729
61164	0.0058
61174	0.0049
61184	0.00468
61195	0.00492
61206	0.00546
61217	0.00605
61227	0.00664
61238	0.00723
61249	0.0077
61260	0.00807
61270	0.00824
61281	0.00809
61292	0.00743
61302	0.00646
61313	0.00559
61323	0.00517
61334	0.00515
61344	0.00543
61355	0.00589
61367	0.00651
61377	0.00704
61388	0.00761
61399	0.00812
61409	0.00858
61420	0.00895
61430	0.00915
61440	0.00896
61451	0.00804
61461	0.00658
61471	0.00533
61481	0.00473
61492	0.00475
61502	0.00513
61513	0.00569
61524	0.0063
61535	0.00689
61546	0.00744
61556	0.00788
61567	0.00817
61577	0.00823
61588	0.00787
61599	0.00702
61610	0.00603
61620	0.00535
61630	0.00512
61640	0.00524
61651	0.00558
61661	0.00608
61672	0.00663
61683	0.00722
61694	0.00777
61704	0.00824
61715	0.00867
61725	0.00901
61735	0.00915
61745	0.00885
61755	0.00784
61766	0.00626
61776	0.0051
61787	0.00469
61797	0.00482
61807	0.00523
61817	0.00577
61829	0.00642
61839	0.00698
61850	0.00749
61860	0.00791
61871	0.00819
61881	0.00822
61892	0.0078
61903	0.00693
61913	0.00596
61924	0.00532
61934	0.00511
61944	0.00526
61955	0.00563
61966	0.00617
61977	0.00674
61988	0.00729
61998	0.00781
62009	0.00831
62020	0.00875
62030	0.00908
62041	0.00911
62052	0.00852
62062	0.00725
62072	0.00577
62083	0.00489
62093	0.00468
62104	0.00494
62114	0.00541
62124	0.00597
62134	0.00654
62146	0.00716
62156	0.00766
62167	0.00805
62178	0.00824
62188	0.00813
62199	0.00751
62210	0.00653
62221	0.00563
62231	0.00518
62241	0.00514
62252	0.0054
62262	0.00583
62274	0.00641
62284	0.00696
62295	0.0075
62305	0.008
62315	0.00845
62325	0.00886
62336	0.00913
62347	0.00904
62358	0.00823
62368	0.00678
62378	0.00545
62388	0.00478
62398	0.00471
62409	0.00505
62421	0.00563
62431	0.0062
62441	0.0068
62452	0.00732
62463	0.0078
62473	0.00813
62484	0.00824
62496	0.00793
62506	0.0072
62517	0.00617
62527	0.00542
62537	0.00513
62548	0.00522
62560	0.0056
62571	0.00611
62581	0.00667
62593	0.00725
62603	0.00779
62614	0.00829
62625	0.00874
62636	0.00907
62646	0.00912
62657	0.00857
62667	0.00731
62678	0.00581
62688	0.00491
62698	0.00468
62709	0.00492
62720	0.00545
62731	0.00603
62741	0.00662
62752	0.00721
62763	0.00769
62774	0.00807
62784	0.00824
62795	0.0081
62806	0.00745
62816	0.00648
62827	0.00559
62837	0.00517
62848	0.00515
62858	0.00542
62869	0.00588
62881	0.00649
62891	0.00702
62902	0.0076
62913	0.00812
62924	0.00858
62934	0.00894
62944	0.00915
62954	0.00897
62965	0.00806
62975	0.0066
62985	0.00534
62995	0.00475
63005	0.00473
63016	0.00507
63026	0.00559
63038	0.00628
63049	0.00687
63060	0.00743
63070	0.00787
63081	0.00817
63092	0.00822
63104	0.00779
63115	0.00692
63125	0.00596
63135	0.00532
63145	0.00511
63156	0.00526
63166	0.00563
63178	0.00618
63189	0.00675
63199	0.00729
63210	0.00781
63220	0.00831
63231	0.00876
63242	0.00908
63253	0.00911
63264	0.00851
63274	0.00712
63285	0.00567
63295	0.00485
63305	0.00469
63315	0.00494
63325	0.00541
63335	0.00598
63346	0.00655
63357	0.00717
63368	0.00766
63379	0.00805
63390	0.00824
63400	0.00812
63411	0.0075
63422	0.00652
63432	0.00562
63442	0.00518
63453	0.00515
63463	0.0054
63474	0.00584
63485	0.00642
63496	0.00697
63506	0.0075
63517	0.008
63527	0.00846
63537	0.00886
63548	0.00913
63558	0.00903
63569	0.00822
63579	0.00677
63590	0.00544
63600	0.00478
63610	0.00471
63621	0.00505
63632	0.00564
63642	0.00621
63653	0.00681
63663	0.00732
63674	0.0078
63685	0.00813
63696	0.00824
63707	0.00793
63717	0.00719
63728	0.00617
63739	0.00542
63749	0.00513
63760	0.00522
63771	0.0056
63782	0.00612
63793	0.00668
63804	0.00725
63815	0.00779
63826	0.0083
63837	0.00874
63847	0.00907
63858	0.00912
63869	0.00856
63879	0.0073
63889	0.0058
63900	0.0049
63910	0.00468
63920	0.00492
63932	0.00545
63942	0.00604
63953	0.00663
63964	0.00722
63974	0.00769
63985	0.00807
63996	0.00824
64006	0.00809
64017	0.00744
64028	0.00647
64039	0.00559
64049	0.00517
64059	0.00515
64070	0.00543
64080	0.00589
64093	0.0065
64103	0.00703
64114	0.0076
64125	0.00812
64135	0.00858
64145	0.00895
64155	0.00915
64166	0.00896
64176	0.00805
64186	0.00659
64197	0.00533
64207	0.00475
64217	0.00474
64227	0.00508
64237	0.0056
64250	0.00629
64260	0.00688
64271	0.00744
64282	0.00787
64292	0.00817
64304	0.00822
64315	0.00778
64326	0.00691
64337	0.00595
64347	0.00531
64357	0.00511
64367	0.00526
64378	0.00564
64389	0.00619
64400	0.00676
64411	0.0073
64421	0.00782
64432	0.00832
64443	0.00876
64453	0.00908
64464	0.00911
64475	0.00851
64486	0.00711
64496	0.00566
64506	0.00485
64517	0.00469
64527	0.00494
64537	0.00542
64547	0.00599
64557	0.00656
64569	0.00718
64580	0.00767
64590	0.00805
64601	0.00824
64611	0.00812
64622	0.00749
64633	0.00652
64644	0.00562
64654	0.00518
64665	0.00515
64675	0.0054
64685	0.00585
64697	0.00643
64708	0.00698
64718	0.00751
64728	0.00801
64738	0.00846
64748	0.00886
64759	0.00913
64770	0.00903
64781	0.00822
64791	0.00676
64801	0.00544
64811	0.00478
64822	0.00471
64832	0.00506
64844	0.00564
64854	0.00623
64865	0.00682
64875	0.00733
64886	0.00781
64897	0.00813
64908	0.00824
64919	0.00792
64929	0.00718
64940	0.00616
64950	0.00542
64960	0.00513
64971	0.00522
64983	0.00561
64994	0.00613
65005	0.00669
65016	0.00726
65026	0.00779
65037	0.0083
65048	0.00874
65059	0.00907
65070	0.00912
65080	0.00855
65090	0.00729
65101	0.0058
65111	0.0049
65121	0.00468
65132	0.00492
65143	0.00546
65154	0.00605
65164	0.00665
65176	0.00723
65186	0.0077
65197	0.00807
65208	0.00824
65218	0.00809
65229	0.00743
65239	0.00646
65250	0.00558
65260	0.00517
65271	0.00515
65281	0.00543
65292	0.0059
65304	0.00651
65314	0.00704
65326	0.00761
65336	0.00812
65347	0.00858
65357	0.00895
65367	0.00915
65377	0.00896
65388	0.00804
65398	0.00658
65408	0.00533
65419	0.00473
65429	0.00475
65440	0.00513
65450	0.00569
65461	0.00631
65472	0.00689
65483	0.00744
65494	0.00788
65504	0.00817
65514	0.00823
65525	0.00787
65536	0.00701
65547	0.00603
65557	0.00535
65568	0.00512
65578	0.00524
65588	0.00558
65599	0.00608
65609	0.00663
65621	0.00722
65632	0.00777
65642	0.00824
65652	0.00867
65662	0.00901
65672	0.00915
65682	0.00885
65692	0.00784
65703	0.00626
65714	0.0051
65724	0.00469
65735	0.00482
65745	0.00523
65755	0.00577
65766	0.00642
65776	0.00698
65787	0.00749
65797	0.00791
65808	0.00819
65818	0.00822
65830	0.0078
65840	0.00693
65851	0.00596
65861	0.00532
65871	0.00511
65881	0.00526
65892	0.00563
65903	0.00617
65914	0.00674
65925	0.00729
65935	0.00781
65946	0.00831
65957	0.00875
65968	0.00908
65978	0.00911
65989	0.00852
66000	0.00713
66010	0.00568
66021	0.00486
66031	0.00469
66041	0.00494
66051	0.00541
66061	0.00597
66071	0.00654
66083	0.00716
66094	0.00766
66105	0.00805
66115	0.00824
66125	0.00813
66137	0.00751
66147	0.00653
66158	0.00563
66168	0.00518
66179	0.00514
66189	0.0054
66199	0.00583
66211	0.00641
66221	0.00696
66232	0.0075
66242	0.008
66252	0.00845
66263	0.00886
66273	0.00913
66284	0.00904
66295	0.00823
66305	0.00678
66315	0.00545
66325	0.00478
66336	0.00471
66346	0.00505
66358	0.00563
66368	0.0062
66379	0.0068
66389	0.00732
66400	0.0078
66411	0.00813
66422	0.00824
66433	0.00793
66443	0.0072
66454	0.00617
66464	0.00542
66475	0.00513
66486	0.00522
66497	0.0056
66508	0.00611
66519	0.00667
66530	0.00725
66541	0.00779
66551	0.00829
66562	0.00874
66573	0.00907
66584	0.00912
66594	0.00857
66605	0.00731
66615	0.00581
66625	0.00491
66635	0.00468
66646	0.00492
66657	0.00545
66668	0.00604
66678	0.00662
66690	0.00721
66700	0.00769
66711	0.00807
66722	0.00824
66732	0.0081
66743	0.00745
66754	0.00648
66764	0.00559
66774	0.00517
66785	0.00515
66795	0.00542
66806	0.00588
66818	0.00649
66828	0.00703
66840	0.0076
66850	0.00812
66861	0.00858
66871	0.00894
66881	0.00915
66892	0.00897
66902	0.00806
66912	0.0066
66922	0.00534
66932	0.00475
66943	0.00473
66953	0.00507
66963	0.00559
66975	0.00628
66986	0.00687
66997	0.00743
67008	0.00787
67018	0.00817
67030	0.00822
67041	0.00779
67052	0.00692
67062	0.00596
67073	0.00532
67083	0.00511
67093	0.00526
67103	0.00563
67115	0.00618
67126	0.00675
67136	0.00729
67147	0.00782
67158	0.00831
67168	0.00876
67179	0.00908
67190	0.00911
67201	0.00851
67212	0.00712
67222	0.00567
67232	0.00485
67242	0.00469
67252	0.00494
67263	0.00541
67273	0.00598
67283	0.00655
67295	0.00717
67305	0.00766
67316	0.00805
67327	0.00824
67337	0.00812
67348	0.0075
67359	0.00652
67370	0.00562
67380	0.00518
67390	0.00515
67400	0.0054
67411	0.00584
67423	0.00642
67433	0.00697
67443	0.0075
67454	0.008
67464	0.00846
67474	0.00886
67485	0.00913
67496	0.00903
67506	0.00822
67517	0.00677
67527	0.00544
67537	0.00478
67547	0.00471
67558	0.00505
67569	0.00564
67580	0.00622
67590	0.00681
67601	0.00732
67612	0.0078
67622	0.00813
67633	0.00824
67644	0.00793
67655	0.00719
67666	0.00616
67676	0.00542
67686	0.00513
67697	0.00522
67708	0.0056
67720	0.00612
67730	0.00668
67741	0.00725
67752	0.00779
67763	0.0083
67774	0.00874
67784	0.00907
67795	0.00912
67806	0.00856
67816	0.0073
67827	0.0058
67837	0.0049
67847	0.00468
67858	0.00492
67869	0.00545
67880	0.00605
67890	0.00664
67901	0.00722
67912	0.00769
67923	0.00807
67933	0.00824
67943	0.00809
67955	0.00744
67965	0.00647
67976	0.00559
67986	0.00517
67997	0.00515
68007	0.00543
68018	0.00589
68030	0.0065
68040	0.00703
68051	0.0076
68062	0.00812
68072	0.00858
68083	0.00895
68093	0.00915
68103	0.00896
68114	0.00805
68124	0.00659
68134	0.00533
68144	0.00474
68154	0.00474
68164	0.00508
68174	0.0056
68187	0.0063
68197	0.00688
68209	0.00744
68219	0.00787
68230	0.00817
68241	0.00822
68253	0.00778
68263	0.00691
68274	0.00595
68284	0.00531
68294	0.00511
68305	0.00526
68315	0.00564
68327	0.00619
68338	0.00676
68348	0.0073
68359	0.00782
68369	0.00832
68380	0.00876
68391	0.00908
68402	0.00911
68412	0.00851
68423	0.00711
68433	0.00566
68444	0.00485
68454	0.00469
68464	0.00494
68474	0.00542
68484	0.00599
68495	0.00657
68506	0.00718
68517	0.00767
68528	0.00805
68538	0.00824
68548	0.00812
68560	0.00749
68570	0.00652
68581	0.00562
68591	0.00518
68602	0.00515
68612	0.0054
68622	0.00585
68634	0.00644
68645	0.00698
68655	0.00751
68665	0.00801
68675	0.00846
68686	0.00886
68696	0.00913
68707	0.00903
68718	0.00822
68728	0.00676
68738	0.00544
68748	0.00478
68759	0.00471
68770	0.00506
68781	0.00564
68791	0.00623
68802	0.00682
68812	0.00733
68823	0.00781
68834	0.00813
68845	0.00824
68856	0.00792
68866	0.00718
68877	0.00616
68888	0.00542
68898	0.00513
68909	0.00522
68920	0.00561
68931	0.00613
68942	0.00669
68953	0.00726
68964	0.00779
68975	0.0083
68985	0.00874
68996	0.00907
69007	0.00912
69018	0.00855
69028	0.00729
69038	0.0058
69048	0.0049
69058	0.00468
69069	0.00493
69079	0.00539
69091	0.00606
69102	0.00665
69113	0.00723
69123	0.0077
69134	0.00807
69145	0.00824
69155	0.00809
69166	0.00743
69177	0.00646
69187	0.00558
69197	0.00517
69208	0.00515
69218	0.00543
69229	0.0059
69242	0.00652
69252	0.00704
69263	0.00761
69274	0.00812
69284	0.00858
69294	0.00895
69304	0.00915
69315	0.00896
69325	0.00804
69335	0.00658
69345	0.00533
69356	0.00473
69367	0.00475
69377	0.00513
69388	0.00569
69399	0.00631
69409	0.00689
69420	0.00744
69431	0.00788
69441	0.00817
69451	0.00823
69463	0.00787
69474	0.00701
69484	0.00603
69495	0.00535
69505	0.00512
69515	0.00524
69525	0.00558
69536	0.00608
69547	0.00663
69558	0.00722
69569	0.00777
69579	0.00824
69589	0.00867
69599	0.00901
69609	0.00915
69619	0.00885
69630	0.00783
69640	0.00626
69651	0.0051
69662	0.00469
69672	0.00482
69682	0.00523
69692	0.00577
69703	0.00643
69714	0.00698
69724	0.00749
69735	0.00791
69745	0.00819
69755	0.00822
69767	0.0078
69777	0.00693
69788	0.00596
69798	0.00532
69808	0.00511
69819	0.00526
69829	0.00563
69841	0.00617
69852	0.00674
69862	0.00729
69873	0.00781
69883	0.00831
69894	0.00875
69905	0.00908
69916	0.00911
69926	0.00852
69937	0.00713
69948	0.00568
69958	0.00486
69968	0.00469
69978	0.00494
69988	0.00541
69998	0.00597
70008	0.00654
70020	0.00716
70031	0.00766
70042	0.00805
70052	0.00824
70062	0.00813
70074	0.00751
70084	0.00653
70095	0.00563
70105	0.00518
70116	0.00514
70126	0.0054
70137	0.00583
70148	0.00641
70159	0.00697
70169	0.0075
70179	0.008
70190	0.00845
70200	0.00886
70211	0.00913
70221	0.00904
70232	0.00823
70242	0.00678
70253	0.00545
70263	0.00478
70273	0.00471
70284	0.00505
70295	0.00563
70305	0.00621
70316	0.0068
70326	0.00732
70337	0.0078
70348	0.00813
70359	0.00824
70370	0.00793
70380	0.0072
70391	0.00617
70402	0.00542
70412	0.00513
70423	0.00522
70434	0.0056
70445	0.00612
70456	0.00667
70467	0.00725
70478	0.00779
70489	0.00829
70499	0.00874
70510	0.00907
70521	0.00912
70532	0.00857
70542	0.00731
70552	0.00581
70563	0.00491
70573	0.00468
70583	0.00492
70595	0.00545
70605	0.00604
70616	0.00662
70627	0.00721
70637	0.00769
70648	0.00807
70659	0.00824
70669	0.0081
70680	0.00745
70691	0.00648
70702	0.00559
70712	0.00517
70722	0.00515
70732	0.00542
70743	0.00588
70755	0.00649
70766	0.00703
70777	0.0076
70788	0.00812
70798	0.00858
70808	0.00894
70818	0.00915
70829	0.00897
70839	0.00806
70849	0.0066
70859	0.00534
70869	0.00475
70880	0.00473
70890	0.00508
70900	0.00559
70912	0.00628
70923	0.00687
70934	0.00743
70945	0.00787
70955	0.00817
70967	0.00822
70978	0.00779
70989	0.00692
70999	0.00596
71010	0.00532
71020	0.00511
71030	0.00526
71041	0.00563
71052	0.00618
71063	0.00675
71074	0.00729
71084	0.00782
71095	0.00832
71106	0.00876
71116	0.00908
71127	0.00911
71138	0.00851
71149	0.00712
71159	0.00567
71169	0.00485
71179	0.00469
71190	0.00494
71200	0.00541
71210	0.00598
71220	0.00656
71232	0.00717
71243	0.00766
71253	0.00805
71264	0.00824
71274	0.00812
71285	0.0075
71296	0.00652
71307	0.00562
71317	0.00518
71327	0.00515
71338	0.0054
71348	0.00584
71360	0.00643
71370	0.00697
71381	0.0075
71391	0.008
71401	0.00846
71411	0.00886
71422	0.00913
71433	0.00903
71444	0.00822
71454	0.00677
71464	0.00544
71474	0.00478
71484	0.00471
71495	0.00505
71507	0.00564
71517	0.00622
71528	0.00681
71538	0.00732
71549	0.0078
71559	0.00813
71571	0.00824
71582	0.00793
71592	0.00719
71603	0.00616
71613	0.00542
71623	0.00513
71634	0.00522
71646	0.0056
71657	0.00613
71668	0.00668
71679	0.00725
71689	0.00779
71700	0.0083
71711	0.00874
71722	0.00907
71733	0.00912
71743	0.00856
71753	0.0073
71764	0.0058
71774	0.0049
71784	0.00468
71795	0.00492
71806	0.00545
71817	0.00605
71827	0.00664
71839	0.00722
71849	0.00769
71860	0.00807
71870	0.00824
71881	0.00809
71892	0.00744
71902	0.00647
71913	0.00559
71923	0.00517
71934	0.00515
71944	0.00543
71955	0.00589
71967	0.00651
71977	0.00704
71988	0.0076
71999	0.00812
72010	0.00858
72020	0.00895
72030	0.00915
72040	0.00896
72051	0.00805
72061	0.00659
72071	0.00533
72081	0.00474
72091	0.00474
72102	0.00508
72112	0.0056
72124	0.0063
72135	0.00688
72146	0.00744
72157	0.00787
72167	0.00817
72178	0.00822
72190	0.00778
72201	0.00691
72211	0.00595
72221	0.00531
72231	0.00511
72242	0.00526
72252	0.00564
72264	0.00619
72275	0.00676
72285	0.0073
72296	0.00782
72306	0.00832
72317	0.00876
72328	0.00908
72339	0.00911
72350	0.00851
72360	0.00711
72371	0.00566
72381	0.00485
72391	0.00469
72401	0.00494
72411	0.00542
72422	0.00599
72432	0.00657
72443	0.00718
72454	0.00767
72465	0.00805
72476	0.00824
72486	0.00812
72497	0.00749
72508	0.00651
72518	0.00562
72529	0.00518
72539	0.00515
72549	0.0054
72560	0.00585
72572	0.00644
72582	0.00698
72592	0.00751
72603	0.00801
72613	0.00846
72623	0.00886
72634	0.00913
72644	0.00903
72655	0.00821
72666	0.00676
72676	0.00544
72686	0.00478
72696	0.00471
72707	0.00506
72718	0.00564
72729	0.00623
72739	0.00682
72749	0.00733
72760	0.00781
72771	0.00813
72782	0.00824
72793	0.00792
72803	0.00718
72814	0.00616
72825	0.00542
72835	0.00513
72846	0.00522
72857	0.00561
72868	0.00613
72879	0.0067
72890	0.00726
72901	0.0078
72912	0.0083
72923	0.00874
72933	0.00907
72944	0.00912
72955	0.00855
72965	0.00729
72975	0.0058
72986	0.0049
72996	0.00468
73006	0.00493
73016	0.00539
73028	0.00606
73039	0.00665
73050	0.00723
73061	0.0077
73071	0.00807
73082	0.00824
73092	0.00809
73103	0.00743
73114	0.00646
73125	0.00558
73135	0.00517
73145	0.00515
73156	0.00543
73166	0.0059
73179	0.00652
73189	0.00704
73200	0.00761
73211	0.00812
73221	0.00858
73231	0.00895
73241	0.00915
73252	0.00896
73262	0.00804
73272	0.00658
73283	0.00533
73293	0.00473
73304	0.00475
73314	0.00513
73325	0.00569
73336	0.00631
73346	0.00689
73358	0.00744
73368	0.00788
73379	0.00817
73389	0.00823
73400	0.00787
73411	0.00701
73422	0.00602
73432	0.00535
73442	0.00512
73452	0.00524
73462	0.00558
73473	0.00608
73484	0.00663
73495	0.00722
73506	0.00777
73516	0.00824
73526	0.00867
73536	0.00901
73547	0.00915
73557	0.00885
73567	0.00783
73578	0.00626
73588	0.0051
73599	0.00469
73609	0.00482
73619	0.00523
73629	0.00577
73641	0.00643
73651	0.00698
73662	0.0075
73672	0.00791
73682	0.00819
73693	0.00822
73704	0.0078
73715	0.00693
73725	0.00596
73735	0.00532
73746	0.00511
73756	0.00526
73766	0.00563
73778	0.00617
73789	0.00674
73799	0.00729
73810	0.00781
73821	0.00831
73831	0.00875
73842	0.00908
73853	0.00911
73864	0.00852
73875	0.00712
73885	0.00568
73895	0.00486
73905	0.00469
73915	0.00494
73925	0.00541
73936	0.00597
73946	0.00654
73957	0.00717
73968	0.00766
73979	0.00805
73990	0.00824
74000	0.00813
74011	0.00751
74022	0.00653
74033	0.00562
74043	0.00518
74053	0.00514
74063	0.0054
74074	0.00584
74085	0.00642
74096	0.00697
74106	0.0075
74117	0.008
74127	0.00845
74137	0.00886
74148	0.00913
74159	0.00903
74169	0.00823
74180	0.00678
74190	0.00545
74200	0.00478
74210	0.00471
74221	0.00505
74232	0.00563
74243	0.00621
74253	0.0068
74263	0.00732
74275	0.0078
74285	0.00813
74296	0.00824
74307	0.00793
74318	0.0072
74328	0.00617
74339	0.00542
74349	0.00513
74360	0.00522
74371	0.0056
74382	0.00612
74393	0.00667
74404	0.00725
74415	0.00779
74426	0.00829
74437	0.00874
74447	0.00907
74458	0.00912
74469	0.00856
74479	0.00731
74490	0.00581
74500	0.00491
74510	0.00468
74521	0.00492
74532	0.00545
74542	0.00604
74553	0.00663
74564	0.00722
74575	0.00769
74585	0.00807
74596	0.00824
74606	0.0081
74617	0.00745
74628	0.00648
74639	0.00559
74649	0.00517
74659	0.00515
74670	0.00542
74681	0.00588
74693	0.00649
74703	0.00703
74714	0.0076
74725	0.00812
74735	0.00858
74746	0.00894
74756	0.00915
74766	0.00896
74777	0.00806
74787	0.00659
74797	0.00534
74807	0.00475
74817	0.00473
74827	0.00508
74837	0.00559
74850	0.00629
74860	0.00687
74872	0.00743
74882	0.00787
74893	0.00817
74904	0.00822
74916	0.00779
74926	0.00692
74937	0.00596
74947	0.00532
74957	0.00511
74967	0.00526
74978	0.00563
74989	0.00618
75000	0.00675
75011	0.00729
75021	0.00782
75032	0.00832
75043	0.00876
75054	0.00908
75064	0.00911
75075	0.00851
75086	0.00711
75096	0.00567
75107	0.00485
75117	0.00469
75127	0.00494
75137	0.00541
75147	0.00598
75157	0.00656
75169	0.00717
75180	0.00767
75191	0.00805
75201	0.00824
75211	0.00812
75223	0.0075
75233	0.00652
75244	0.00562
75254	0.00518
75265	0.00515
75275	0.0054
75285	0.00584
75297	0.00643
75308	0.00698
75318	0.0075
75328	0.00801
75338	0.00846
75349	0.00886
75359	0.00913
75370	0.00903
75381	0.00822
75391	0.00677
75401	0.00544
75411	0.00478
75422	0.00471
75432	0.00505
75444	0.00564
75454	0.00622
75465	0.00681
75475	0.00733
75486	0.00781
75497	0.00813
75508	0.00824
75519	0.00793
75529	0.00719
75540	0.00616
75550	0.00542
75561	0.00513
75572	0.00522
75583	0.0056
75594	0.00613
75605	0.00669
75616	0.00725
75627	0.00779
75637	0.0083
75648	0.00874
75659	0.00907
75670	0.00912
75681	0.00856
75691	0.0073
75701	0.0058
75711	0.0049
75721	0.00468
75732	0.00492
75743	0.00545
75754	0.00605
75765	0.00664
75776	0.00722
75786	0.00769
75797	0.00807
75808	0.00824
75818	0.00809
75829	0.00744
75840	0.00647
75850	0.00559
75860	0.00517
75871	0.00515
75881	0.00543
75892	0.00589
75904	0.00651
75915	0.00704
75926	0.0076
75936	0.00812
75947	0.00858
75957	0.00895
75967	0.00915
75978	0.00896
75988	0.00805
75998	0.00659
76008	0.00533
76018	0.00474
76029	0.00474
76039	0.00508
76049	0.0056
76061	0.0063
76072	0.00688
76083	0.00744
76094	0.00787
76104	0.00817
76114	0.00823
76126	0.00788
76137	0.00702
76147	0.00603
76158	0.00535
76168	0.00512
76178	0.00523
76188	0.00557
76199	0.00607
76209	0.00662
76221	0.00721
76232	0.00777
76242	0.00824
76252	0.00867
76262	0.00901
76272	0.00915
76282	0.00885
76293	0.00784
76303	0.00626
76314	0.0051
76325	0.00469
76335	0.00482
76345	0.00523
76355	0.00576
76366	0.00642
76377	0.00697
76387	0.00749
76398	0.00791
76408	0.00819
76418	0.00822
76430	0.0078
76440	0.00694
76451	0.00597
76461	0.00532
76471	0.00511
76482	0.00526
76492	0.00562
76503	0.00616
76514	0.00673
76525	0.00728
76536	0.00781
76546	0.00831
76557	0.00875
76568	0.00908
76579	0.00911
76589	0.00853
76599	0.00726
76610	0.00577
76620	0.00489
76630	0.00468
76641	0.00493
76651	0.0054
76661	0.00596
76671	0.00653
76683	0.00716
76694	0.00766
76705	0.00805
76715	0.00824
76727	0.00807
76738	0.0074
76748	0.00644
76759	0.00557
76769	0.00516
76780	0.00516
76790	0.00544
76801	0.00592
76814	0.00655
76826	0.00717
76836	0.00768
76846	0.00818
76857	0.00862
76867	0.00898
76877	0.00915
76888	0.00888
76898	0.0079
76908	0.00643
76919	0.00518
76929	0.0047
76940	0.0048
76951	0.00526
76962	0.00582
76974	0.0065
76986	0.00714
76996	0.00764
77007	0.00804
77018	0.00824
77030	0.00809
77041	0.00743
77051	0.00646
77062	0.00558
77072	0.00517
77083	0.00515
77093	0.00543
77104	0.0059
77116	0.00652
77126	0.00705
77137	0.00761
77148	0.00812
77158	0.00858
77169	0.00895
77179	0.00915
77189	0.00896
77200	0.00804
77210	0.00658
77220	0.00533
77230	0.00473
77241	0.00475
77251	0.00513
77262	0.0057
77273	0.00631
77284	0.00689
77295	0.00744
77305	0.00788
77316	0.00817
77326	0.00823
77337	0.00787
77348	0.00701
77359	0.00602
77369	0.00535
77379	0.00512
77389	0.00524
77400	0.00558
77410	0.00608
77421	0.00663
77432	0.00722
77443	0.00777
77453	0.00824
77464	0.00867
77474	0.00901
77484	0.00915
77494	0.00884
77504	0.00783
77515	0.00626
77525	0.0051
77536	0.00469
77546	0.00482
77556	0.00523
77566	0.00577
77578	0.00643
77588	0.00698
77599	0.0075
77609	0.00791
77620	0.00819
77630	0.00822
77641	0.00779
77652	0.00693
77662	0.00596
77673	0.00532
77683	0.00511
77693	0.00526
77704	0.00563
77715	0.00617
77726	0.00674
77737	0.00729
77747	0.00781
77758	0.00831
77769	0.00875
77779	0.00908
77790	0.00911
77801	0.00852
77812	0.00712
77822	0.00568
77832	0.00486
77842	0.00469
77853	0.00494
77863	0.00541
77873	0.00597
77883	0.00655
77895	0.00717
77905	0.00766
77916	0.00805
77927	0.00824
77937	0.00813
77948	0.0075
77959	0.00653
77970	0.00562
77980	0.00518
77990	0.00514
78001	0.0054
78011	0.00584
78023	0.00642
78033	0.00697
78044	0.0075
78054	0.008
78064	0.00845
78074	0.00886
78085	0.00913
78096	0.00903
78107	0.00823
78117	0.00678
78127	0.00545
78137	0.00478
78147	0.00471
78158	0.00505
78170	0.00563
78180	0.00621
78191	0.0068
78201	0.00732
78212	0.0078
78222	0.00813
78233	0.00824
78245	0.00793
78255	0.0072
78266	0.00617
78276	0.00542
78286	0.00513
78297	0.00522
78309	0.0056
78320	0.00612
78331	0.00668
78342	0.00725
78352	0.00779
78363	0.00829
78374	0.00874
78385	0.00907
78395	0.00912
78406	0.00856
78416	0.00731
78427	0.00581
78437	0.00491
78447	0.00468
78458	0.00492
78469	0.00545
78480	0.00604
78490	0.00663
78501	0.00722
78512	0.00769
78523	0.00807
78533	0.00824
78544	0.0081
78555	0.00745
78565	0.00647
78576	0.00559
78586	0.00517
78597	0.00515
78607	0.00542
78618	0.00588
78630	0.0065
78640	0.00703
78651	0.0076
78662	0.00812
78673	0.00858
78683	0.00894
78693	0.00915
78703	0.00896
78714	0.00806
78724	0.00659
78734	0.00534
78744	0.00475
78754	0.00473
78765	0.00508
78775	0.00559
78787	0.00629
78798	0.00687
78809	0.00743
78819	0.00787
78830	0.00817
78841	0.00822
78853	0.00779
78864	0.00692
78874	0.00595
78884	0.00532
78894	0.00511
78905	0.00526
78915	0.00563
78927	0.00618
78938	0.00675
78948	0.00729
78959	0.00782
78969	0.00832
78980	0.00876
78991	0.00908
79002	0.00911
79013	0.00851
79023	0.00711
79034	0.00567
79044	0.00485
79054	0.00469
79064	0.00494
79074	0.00542
79084	0.00598
79095	0.00656
79106	0.00717
79117	0.00767
79128	0.00805
79139	0.00824
79149	0.00812
79160	0.0075
79171	0.00652
79181	0.00562
79191	0.00518
79202	0.00515
79212	0.0054
79223	0.00584
79234	0.00643
79245	0.00698
79255	0.0075
79266	0.00801
79276	0.00846
79286	0.00886
79297	0.00913
79307	0.00903
79318	0.00822
79328	0.00677
79339	0.00544
79349	0.00478
79359	0.00471
79370	0.00505
79381	0.00564
79391	0.00622
79402	0.00681
79412	0.00733
79423	0.00781
79434	0.00813
79445	0.00824
79456	0.00792
79466	0.00719
79477	0.00616
79488	0.00542
79498	0.00513
79509	0.00522
79520	0.0056
79531	0.00613
79542	0.00669
79553	0.00726
79564	0.00779
79575	0.0083
79585	0.00874
79596	0.00907
79607	0.00912
79618	0.00856
79628	0.0073
79638	0.0058
79649	0.0049
79659	0.00468
79669	0.00492
79681	0.00546
79691	0.00605
79702	0.00664
79713	0.00722
79723	0.0077
79734	0.00807
79745	0.00824
79755	0.00809
79766	0.00744
79777	0.00647
79788	0.00559
79798	0.00517
79808	0.00515
79819	0.00543
79829	0.00589
79842	0.00651
79852	0.00704
79863	0.0076
79874	0.00812
79884	0.00858
79894	0.00895
79904	0.00915
79915	0.00896
79925	0.00805
79935	0.00658
79945	0.00533
79955	0.00474
79966	0.00474
79976	0.00508
79986	0.0056
79999	0.0063
80009	0.00688
80020	0.00744
80031	0.00787
80041	0.00817
80051	0.00823
80063	0.00788
80074	0.00702
80085	0.00603
80095	0.00535
80105	0.00512
80115	0.00523
80125	0.00558
80136	0.00607
80147	0.00662
80158	0.00721
80169	0.00777
80179	0.00824
80189	0.00867
80199	0.00901
80210	0.00915
80220	0.00885
80230	0.00784
80241	0.00626
80251	0.0051
80262	0.00469
80272	0.00482
80282	0.00523
80292	0.00576
80304	0.00642
80314	0.00697
80324	0.00749
80335	0.00791
80345	0.00819
80355	0.00822
80367	0.0078
80378	0.00693
80388	0.00597
80398	0.00532
80409	0.00511
80419	0.00526
80429	0.00562
80441	0.00617
80452	0.00673
80462	0.00728
80473	0.00781
80484	0.00831
80494	0.00875
80505	0.00908
80516	0.00911
80527	0.00853
80537	0.00726
80547	0.00577
80557	0.00489
80567	0.00468
80578	0.00493
80588	0.0054
80598	0.00596
80609	0.00654
80620	0.00716
80631	0.00766
80642	0.00805
80653	0.00824
80664	0.00807
80675	0.0074
80686	0.00644
80696	0.00557
80707	0.00516
80717	0.00516
80728	0.00544
80739	0.00592
80751	0.00655
80763	0.00717
80773	0.00768
80784	0.00818
80794	0.00862
80804	0.00898
80814	0.00915
80825	0.00888
80835	0.0079
80845	0.00643
80856	0.00518
80866	0.0047
80876	0.00478
80887	0.0052
80899	0.00582
80911	0.0065
80923	0.00714
80934	0.00764
80945	0.00804
80955	0.00824
80967	0.00809
80978	0.00743
80988	0.00646
80999	0.00558
81009	0.00517
81020	0.00515
81030	0.00543
81041	0.0059
81053	0.00652
81063	0.00705
81075	0.00761
81085	0.00812
81096	0.00858
81106	0.00895
81116	0.00915
81126	0.00896
81137	0.00804
81147	0.00657
81157	0.00533
81168	0.00473
81178	0.00476
81189	0.00513
81199	0.0057
81210	0.00631
81221	0.00689
81232	0.00745
81243	0.00788
81253	0.00817
81263	0.00823
81274	0.00787
81285	0.00701
81296	0.00602
81306	0.00535
81317	0.00512
81327	0.00524
81337	0.00558
81348	0.00608
81358	0.00663
81370	0.00722
81381	0.00777
81391	0.00824
81401	0.00867
81411	0.00901
81421	0.00915
81431	0.00884
81441	0.00783
81452	0.00625
81463	0.0051
81473	0.00469
81484	0.00482
81494	0.00523
81504	0.00577
81515	0.00643
81525	0.00698
81536	0.0075
81546	0.00791
81557	0.00819
81567	0.00822
81579	0.00779
81589	0.00693
81600	0.00596
81610	0.00532
81620	0.00511
81630	0.00526
81641	0.00563
81652	0.00618
81663	0.00674
81674	0.00729
81684	0.00781
81695	0.00831
81706	0.00875
81717	0.00908
81727	0.00911
81738	0.00852
81749	0.00712
81759	0.00567
81770	0.00485
81780	0.00469
81790	0.00494
81800	0.00541
81810	0.00597
81820	0.00655
81832	0.00717
81843	0.00766
81854	0.00805
81864	0.00824
81874	0.00813
81886	0.0075
81896	0.00653
81907	0.00562
81917	0.00518
81928	0.00514
81938	0.0054
81948	0.00584
81960	0.00642
81971	0.00697
81981	0.0075
81991	0.008
82001	0.00845
82012	0.00886
82022	0.00913
82033	0.00903
82044	0.00823
82054	0.00678
82064	0.00545
82074	0.00478
82085	0.00471
82095	0.00505
82107	0.00563
82117	0.00621
82128	0.0068
82138	0.00732
82149	0.0078
82160	0.00813
82171	0.00824
82182	0.00793
82192	0.0072
82203	0.00617
82213	0.00542
82224	0.00513
82235	0.00522
82246	0.0056
82257	0.00612
82268	0.00668
82279	0.00725
82290	0.00779
82300	0.00829
82311	0.00874
82322	0.00907
82333	0.00912
82343	0.00856
82354	0.0073
82364	0.00581
82374	0.00491
82384	0.00468
82395	0.00492
82406	0.00545
82417	0.00604
82427	0.00663
82439	0.00722
82449	0.00769
82460	0.00807
82471	0.00824
82481	0.0081
82492	0.00744
82503	0.00647
82513	0.00559
82523	0.00517
82534	0.00515
82544	0.00542
82555	0.00589
82567	0.0065
82577	0.00703
82589	0.0076
82599	0.00812
82610	0.00858
82620	0.00894
82630	0.00915
82641	0.00896
82651	0.00806
82661	0.00659
82671	0.00534
82681	0.00475
82692	0.00473
82702	0.00508
82712	0.00559
82724	0.00629
82735	0.00687
82746	0.00743
82757	0.00787
82767	0.00817
82779	0.00822
82790	0.00779
82801	0.00692
82811	0.00595
82821	0.00532
82832	0.00511
82842	0.00526
82852	0.00563
82864	0.00619
82875	0.00675
82885	0.0073
82896	0.00782
82907	0.00832
82917	0.00876
82928	0.00908
82939	0.00911
82950	0.00851
82961	0.00711
82971	0.00567
82981	0.00485
82991	0.00469
83001	0.00494
83012	0.00542
83022	0.00598
83032	0.00656
83044	0.00717
83054	0.00767
83065	0.00805
83076	0.00824
83086	0.00812
83097	0.00749
83108	0.00652
83119	0.00562
83129	0.00518
83139	0.00515
83149	0.0054
83160	0.00584
83172	0.00643
83182	0.00698
83192	0.0075
83203	0.00801
83213	0.00846
83223	0.00886
83234	0.00913
83245	0.00903
83255	0.00822
83266	0.00677
83276	0.00544
83286	0.00478
83296	0.00471
83307	0.00506
83318	0.00564
83329	0.00622
83339	0.00681
83350	0.00733
83361	0.00781
83371	0.00813
83382	0.00824
83393	0.00792
83404	0.00719
83415	0.00616
83425	0.00542
83435	0.00513
83446	0.00522
83457	0.0056
83469	0.00613
83479	0.00669
83490	0.00726
83501	0.00779
83512	0.0083
83523	0.00874
83533	0.00907
83544	0.00912
83555	0.00856
83565	0.00729
83576	0.0058
83586	0.0049
83596	0.00468
83607	0.00492
83618	0.00546
83629	0.00605
83639	0.00664
83650	0.00722
83661	0.0077
83672	0.00807
83682	0.00824
83692	0.00809
83704	0.00744
83714	0.00647
83725	0.00559
83735	0.00517
83746	0.00515
83756	0.00543
83767	0.00589
83779	0.00651
83789	0.00704
83800	0.0076
83811	0.00812
83821	0.00858
83832	0.00895
83842	0.00915
83852	0.00896
83863	0.00805
83873	0.00658
83883	0.00533
83893	0.00473
83904	0.00475
83914	0.00513
83925	0.00569
83936	0.0063
83946	0.00688
83958	0.00744
83968	0.00788
83979	0.00817
83989	0.00823
84000	0.00788
84011	0.00702
84022	0.00603
84032	0.00535
84042	0.00512
84052	0.00523
84062	0.00558
84073	0.00607
84084	0.00662
84095	0.00722
84106	0.00777
84116	0.00824
84127	0.00867
84137	0.00901
84147	0.00915
84157	0.00885
84167	0.00784
84178	0.00626
84188	0.0051
84199	0.00469
84209	0.00482
84219	0.00523
84229	0.00577
84241	0.00642
84251	0.00698
84262	0.00749
84272	0.00791
84283	0.00819
84293	0.00822
84304	0.0078
84315	0.00693
84325	0.00597
84336	0.00532
84346	0.00511
84356	0.00526
84366	0.00562
84378	0.00617
84389	0.00673
84400	0.00728
84410	0.00781
84421	0.00831
84432	0.00875
84442	0.00908
84453	0.00911
84464	0.00853
84474	0.00726
84484	0.00577
84495	0.00489
84505	0.00468
84516	0.00493
84526	0.00541
84536	0.00596
84546	0.00654
84558	0.00716
84568	0.00766
84579	0.00805
84590	0.00824
84602	0.00807
84613	0.0074
84623	0.00644
84634	0.00557
84644	0.00516
84654	0.00516
84665	0.00544
84676	0.00592
84688	0.00655
84700	0.00717
84710	0.00768
84721	0.00818
84731	0.00862
84741	0.00898
84751	0.00915
84762	0.00888
84772	0.00789
84782	0.00643
84793	0.00518
84804	0.0047
84814	0.00478
84824	0.0052
84836	0.00582
84848	0.0065
84860	0.00714
84871	0.00765
84882	0.00804
84892	0.00824
84904	0.00809
84915	0.00743
84926	0.00646
84936	0.00558
84946	0.00517
84957	0.00516
84967	0.00543
84978	0.0059
84991	0.00652
85001	0.00705
85012	0.00761
85023	0.00813
85033	0.00858
85043	0.00895
85053	0.00915
85064	0.00896
85074	0.00804
85084	0.00657
85094	0.00532
85105	0.00473
85116	0.00476
85126	0.00513
85137	0.0057
85148	0.00631
85158	0.00689
85169	0.00745
85180	0.00788
85190	0.00817
85200	0.00823
85212	0.00787
85223	0.00701
85233	0.00602
85244	0.00535
85254	0.00512
85264	0.00524
85274	0.00558
85285	0.00608
85296	0.00663
85307	0.00722
85318	0.00777
85328	0.00824
85338	0.00867
85348	0.00901
85358	0.00915
85368	0.00884
85379	0.00783
85389	0.00625
85400	0.0051
85411	0.00469
85421	0.00482
85431	0.00523
85441	0.00577
85453	0.00643
85463	0.00698
85473	0.0075
85484	0.00791
85494	0.00819
85504	0.00822
85516	0.00779
85526	0.00692
85537	0.00596
85547	0.00532
85557	0.00511
85568	0.00526
85578	0.00563
85590	0.00618
85601	0.00674
85611	0.00729
85622	0.00781
85632	0.00831
85643	0.00875
85654	0.00908
85665	0.00911
85675	0.00852
85686	0.00712
85697	0.00567
85707	0.00485
85717	0.00469
85727	0.00494
85737	0.00541
85747	0.00597
85757	0.00655
85769	0.00717
85780	0.00766
85791	0.00805
85801	0.00824
85812	0.00813
85823	0.0075
85833	0.00653
85844	0.00562
85854	0.00518
85865	0.00514
85875	0.0054
85886	0.00584
85897	0.00642
85908	0.00697
85918	0.0075
85928	0.008
85938	0.00846
85949	0.00886
85960	0.00913
85970	0.00903
85981	0.00823
85991	0.00678
86002	0.00545
86012	0.00478
86022	0.00471
86033	0.00505
86044	0.00563
86054	0.00621
86065	0.0068
86075	0.00732
86086	0.0078
86097	0.00813
86108	0.00824
86119	0.00793
86129	0.0072
86140	0.00617
86151	0.00542
86161	0.00513
86172	0.00522
86183	0.0056
86194	0.00612
86205	0.00668
86216	0.00725
86227	0.00779
86238	0.0083
86248	0.00874
86259	0.00907
86270	0.00912
86281	0.00856
86291	0.0073
86301	0.00581
86312	0.0049
86322	0.00468
86332	0.00492
86344	0.00545
86354	0.00604
86365	0.00663
86376	0.00722
86386	0.00769
86397	0.00807
86408	0.00824
86418	0.0081
86429	0.00744
86440	0.00647
86451	0.00559
86461	0.00517
86471	0.00515
86481	0.00542
86492	0.00589
86504	0.0065
86515	0.00703
86526	0.0076
86537	0.00812
86547	0.00858
86557	0.00895
86567	0.00915
86578	0.00896
86588	0.00805
86598	0.00659
86608	0.00533
86618	0.00475
86629	0.00473
86639	0.00508
86649	0.00559
86661	0.00629
86672	0.00687
86683	0.00744
86694	0.00787
86704	0.00817
86716	0.00822
86727	0.00779
86738	0.00692
86748	0.00595
86759	0.00532
86769	0.00511
86779	0.00526
86790	0.00563
86801	0.00619
86812	0.00675
86823	0.0073
86833	0.00782
86844	0.00832
86855	0.00876
86865	0.00908
86876	0.00911
86887	0.00851
86898	0.00711
86908	0.00567
86918	0.00485
86928	0.00469
86939	0.00494
86949	0.00542
86959	0.00598
86969	0.00656
86981	0.00718
86992	0.00767
87002	0.00805
87013	0.00824
87023	0.00812
87034	0.00749
87045	0.00652
87056	0.00562
87066	0.00518
87076	0.00515
87087	0.0054
87097	0.00584
87109	0.00643
87119	0.00698
87130	0.0075
87140	0.00801
87150	0.00846
87160	0.00886
87171	0.00913
87182	0.00903
87193	0.00822
87203	0.00677
87213	0.00544
87223	0.00478
87233	0.00471
87244	0.00506
87256	0.00564
87266	0.00622
87277	0.00681
87287	0.00733
87298	0.00781
87308	0.00813
87320	0.00824
87331	0.00792
87341	0.00719
87352	0.00616
87362	0.00542
87372	0.00513
87383	0.00522
87395	0.0056
87406	0.00613
87417	0.00669
87428	0.00726
87438	0.00779
87449	0.0083
87460	0.00874
87471	0.00907
87481	0.00912
87492	0.00855
87502	0.00729
87513	0.0058
87523	0.0049
87533	0.00468
87544	0.00492
87555	0.00546
87566	0.00605
87576	0.00664
87588	0.00722
87598	0.0077
87609	0.00807
87619	0.00824
87630	0.00809
87641	0.00743
87651	0.00647
87662	0.00559
87672	0.00517
87683	0.00515
87693	0.00543
87704	0.00589
87716	0.00651
87726	0.00704
87737	0.00761
87748	0.00812
87759	0.00858
87769	0.00895
87779	0.00915
87789	0.00896
87800	0.00805
87810	0.00658
87820	0.00533
87831	0.00473
87841	0.00475
87852	0.00513
87862	0.00569
87873	0.0063
87884	0.00688
87895	0.00744
87905	0.00788
87916	0.00817
87926	0.00823
87937	0.00787
87948	0.00702
87959	0.00603
87969	0.00535
87979	0.00512
87990	0.00523
88000	0.00558
88011	0.00608
88021	0.00662
88033	0.00722
88044	0.00777
88054	0.00824
88064	0.00867
88074	0.00901
88084	0.00915
88094	0.00885
88104	0.00784
88115	0.00626
88126	0.0051
88136	0.00469
88146	0.00482
88157	0.00523
88167	0.00577
88178	0.00642
88188	0.00698
88199	0.00749
88209	0.00791
88220	0.00819
88230	0.00822
88241	0.0078
88252	0.00693
88263	0.00597
88273	0.00532
88283	0.00511
88293	0.00526
88304	0.00562
88315	0.00617
88326	0.00673
88337	0.00728
88347	0.00781
88358	0.00831
88369	0.00875
88380	0.00908
88390	0.00911
88401	0.00852
88411	0.00725
88422	0.00577
88432	0.00489
88442	0.00468
88453	0.00494
88463	0.00541
88473	0.00596
88483	0.00654
88495	0.00716
88506	0.00766
88517	0.00805
88527	0.00824
88539	0.00807
88550	0.0074
88560	0.00643
88571	0.00557
88581	0.00516
88592	0.00516
88602	0.00544
88613	0.00592
88626	0.00656
88638	0.00717
88648	0.00768
88658	0.00818
88668	0.00862
88678	0.00898
88689	0.00915
88699	0.00888
88710	0.00789
88720	0.00643
88730	0.00518
88741	0.0047
88751	0.00478
88762	0.0052
88773	0.00582
88785	0.0065
88797	0.00714
88808	0.00765
88819	0.00804
88830	0.00824
88841	0.00809
88852	0.00743
88863	0.00646
88874	0.00558
88884	0.00517
88894	0.00516
88905	0.00543
88916	0.0059
88928	0.00652
88938	0.00705
88949	0.00761
88960	0.00813
88970	0.00858
88980	0.00895
88990	0.00915
89001	0.00895
89011	0.00804
89021	0.00657
89032	0.00532
89042	0.00473
89053	0.00476
89063	0.00513
89074	0.0057
89085	0.00631
89095	0.00689
89107	0.00745
89117	0.00788
89128	0.00817
89138	0.00823
89149	0.00787
89160	0.00701
89171	0.00602
89181	0.00535
89191	0.00512
89201	0.00524
89211	0.00558
89222	0.00608
89233	0.00663
89244	0.00722
89255	0.00777
89265	0.00824
89275	0.00867
89285	0.00901
89296	0.00915
89306	0.00884
89316	0.00783
89327	0.00625
89337	0.0051
89348	0.00469
89358	0.00482
89368	0.00523
89378	0.00577
89390	0.00643
89400	0.00699
89411	0.0075
89421	0.00791
89431	0.00819
89442	0.00822
89453	0.00779
89464	0.00692
89474	0.00596
89484	0.00532
89495	0.00511
89505	0.00526
89515	0.00563
89527	0.00618
89538	0.00674
89548	0.00729
89559	0.00781
89570	0.00831
89580	0.00875
89591	0.00908
89602	0.00911
89613	0.00852
89624	0.00712
89634	0.00567
89644	0.00485
89654	0.00469
89664	0.00494
89674	0.00541
89685	0.00597
89695	0.00655
89706	0.00717
89717	0.00766
89728	0.00805
89739	0.00824
89749	0.00812
89760	0.0075
89771	0.00653
89782	0.00562
89792	0.00518
89802	0.00515
89812	0.0054
89823	0.00584
89834	0.00642
89845	0.00697
89855	0.0075
89866	0.008
89876	0.00846
89886	0.00886
89897	0.00913
89908	0.00903
89918	0.00823
89929	0.00678
89939	0.00545
89949	0.00478
89959	0.00471
89970	0.00505
89981	0.00563
89992	0.00621
90002	0.0068
90012	0.00732
90024	0.0078
90034	0.00813
90045	0.00824
90056	0.00793
90067	0.0072
90077	0.00617
90088	0.00542
90098	0.00513
90109	0.00522
90120	0.0056
90131	0.00612
90142	0.00668
90153	0.00725
90164	0.00779
90175	0.0083
90186	0.00874
90196	0.00907
90207	0.00912
90218	0.00856
90228	0.0073
90238	0.00581
90249	0.0049
90259	0.00468
90270	0.00492
90281	0.00545
90291	0.00604
90302	0.00663
90313	0.00722
90324	0.00769
90334	0.00807
90345	0.00824
90355	0.00809
90366	0.00744
90377	0.00647
90388	0.00559
90398	0.00517
90408	0.00515
90419	0.00542
90430	0.00589
90442	0.0065
90452	0.00703
90463	0.0076
90474	0.00812
90484	0.00858
90495	0.00895
90505	0.00915
90515	0.00896
90526	0.00805
90536	0.00659
90546	0.00533
90556	0.00475
90566	0.00473
90576	0.00508
90586	0.00559
90599	0.00629
90609	0.00688
90621	0.00744
90631	0.00787
90642	0.00817
90653	0.00822
90665	0.00778
90675	0.00692
90686	0.00595
90696	0.00532
90706	0.00511
90716	0.00526
90727	0.00563
90739	0.00619
90749	0.00676
90760	0.0073
90770	0.00782
90781	0.00832
90792	0.00876
90803	0.00908
90813	0.00911
90824	0.00851
90835	0.00711
90845	0.00567
90856	0.00485
90866	0.00469
90876	0.00494
90886	0.00542
90896	0.00598
90906	0.00656
90918	0.00718
90929	0.00767
90940	0.00805
90950	0.00824
90960	0.00812
90972	0.00749
90982	0.00652
90993	0.00562
91003	0.00518
91014	0.00515
91024	0.0054
91034	0.00585
91046	0.00643
91057	0.00698
91067	0.00751
91077	0.00801
91087	0.00846
91098	0.00886
91108	0.00913
91119	0.00903
91130	0.00822
91140	0.00677
91150	0.00544
91160	0.00478
91171	0.00471
91181	0.00506
91193	0.00564
91203	0.00622
91214	0.00682
91224	0.00733
91235	0.00781
91246	0.00813
91257	0.00824
91268	0.00792
91278	0.00719
91289	0.00616
91299	0.00542
91310	0.00513
91321	0.00522
91332	0.00561
91343	0.00613
91354	0.00669
91365	0.00726
91376	0.00779
91386	0.0083
91397	0.00874
91408	0.00907
91419	0.00912
91430	0.00855
91440	0.00729
91450	0.0058
91460	0.0049
91470	0.00468
91481	0.00492
91492	0.00546
91503	0.00605
91514	0.00664
91525	0.00723
91535	0.0077
91546	0.00807
91557	0.00824
91567	0.00809
91578	0.00743
91589	0.00646
91599	0.00559
91609	0.00517
91620	0.00515
91630	0.00543
91641	0.00589
91653	0.00651
91664	0.00704
91675	0.00761
91685	0.00812
91696	0.00858
91706	0.00895
91716	0.00915
91727	0.00896
91737	0.00804
91747	0.00658
91757	0.00533
91768	0.00473
91778	0.00475
91789	0.00513
91800	0.00569
91810	0.0063
91821	0.00688
91832	0.00744
91843	0.00788
91853	0.00817
91863	0.00823
91875	0.00787
91886	0.00702
91896	0.00603
91907	0.00535
91917	0.00512
91927	0.00524
91937	0.00558
91948	0.00608
91958	0.00662
91970	0.00722
91981	0.00777
91991	0.00824
92001	0.00867
92011	0.00901
92021	0.00915
92031	0.00885
92041	0.00784
92052	0.00626
92063	0.0051
92074	0.00469
92084	0.00482
92094	0.00523
92104	0.00577
92115	0.00642
92126	0.00698
92136	0.00749
92147	0.00791
92157	0.00819
92167	0.00822
92179	0.0078
92189	0.00693
92200	0.00596
92210	0.00532
92220	0.00511
92231	0.00526
92241	0.00563
92252	0.00617
92263	0.00673
92274	0.00728
92285	0.00781
92295	0.00831
92306	0.00875
92317	0.00908
92328	0.00911
92338	0.00852
92348	0.00725
92359	0.00577
92369	0.00489
92379	0.00468
92390	0.00494
92400	0.00541
92410	0.00596
92420	0.00654
92432	0.00716
92443	0.00766
92454	0.00805
92464	0.00824
92474	0.00813
92486	0.00751
92496	0.00653
92507	0.00563
92517	0.00518
92528	0.00514
92538	0.0054
92548	0.00583
92560	0.00641
92571	0.00696
92581	0.00749
92591	0.008
92601	0.00845
92612	0.00886
92623	0.00913
92633	0.00904
92644	0.00823
92654	0.00679
92665	0.00545
92675	0.00478
92685	0.00471
92696	0.00505
92707	0.00563
92717	0.0062
92728	0.0068
92738	0.00732
92749	0.0078
92760	0.00813
92771	0.00824
92782	0.00794
92792	0.0072
92803	0.00617
92814	0.00542
92824	0.00513
92835	0.00522
92846	0.0056
92857	0.00611
92868	0.00667
92879	0.00724
92890	0.00779
92901	0.00829
92911	0.00874
92922	0.00907
92933	0.00912
92944	0.00857
92954	0.00731
92964	0.00581
92975	0.00491
92985	0.00468
92995	0.00492
93007	0.00545
93017	0.00603
93028	0.00662
93039	0.00721
93049	0.00769
93060	0.00807
93071	0.00824
93081	0.0081
93092	0.00745
93103	0.00648
93114	0.00559
93124	0.00517
93134	0.00515
93144	0.00542
93155	0.00588
93167	0.00649
93178	0.00702
93189	0.0076
93200	0.00812
93210	0.00858
93220	0.00894
93230	0.00915
93241	0.00897
93251	0.00806
93261	0.0066
93271	0.00534
93281	0.00475
93292	0.00473
93302	0.00507
93312	0.00559
93324	0.00628
93335	0.00687
93346	0.00743
93357	0.00787
93367	0.00817
93379	0.00822
93390	0.00779
93401	0.00692
93411	0.00596
93422	0.00532
93432	0.00511
93442	0.00526
93453	0.00563
93464	0.00618
93475	0.00675
93486	0.00729
93496	0.00781
93507	0.00831
93518	0.00876
93528	0.00908
93539	0.00911
93550	0.00852
93561	0.00712
93571	0.00567
93581	0.00485
93591	0.00469
93602	0.00494
93612	0.00541
93622	0.00597
93632	0.00655
93644	0.00717
93654	0.00766
93665	0.00805
93676	0.00824
93686	0.00812
93697	0.0075
93708	0.00653
93719	0.00562
93729	0.00518
93739	0.00515
93750	0.0054
93760	0.00584
93772	0.00642
93782	0.00697
93793	0.0075
93803	0.008
93813	0.00846
93823	0.00886
93834	0.00913
93845	0.00903
93856	0.00823
93866	0.00678
93876	0.00545
93886	0.00478
93896	0.00471
93907	0.00505
93919	0.00563
93929	0.00621
93940	0.00681
93950	0.00732
93961	0.0078
93971	0.00813
93982	0.00824
93994	0.00793
94004	0.00719
94015	0.00617
94025	0.00542
94035	0.00513
94046	0.00522
94058	0.0056
94069	0.00612
94080	0.00668
94091	0.00725
94101	0.00779
94112	0.0083
94123	0.00874
94134	0.00907
94144	0.00912
94155	0.00856
94165	0.0073
94176	0.00581
94186	0.0049
94196	0.00468
94207	0.00492
94218	0.00545
94229	0.00604
94239	0.00663
94250	0.00722
94261	0.00769
94272	0.00807
94282	0.00824
94293	0.00809
94304	0.00744
94314	0.00647
94325	0.00559
94335	0.00517
94346	0.00515
94356	0.00542
94367	0.00589
94379	0.0065
94389	0.00703
94400	0.0076
94411	0.00812
94422	0.00858
94432	0.00895
94442	0.00915
94452	0.00896
94463	0.00805
94473	0.00659
94483	0.00533
94493	0.00475
94503	0.00473
94513	0.00508
94524	0.00559
94536	0.00629
94547	0.00688
94558	0.00744
94568	0.00787
94579	0.00817
94590	0.00822
94602	0.00778
94613	0.00691
94623	0.00595
94633	0.00531
94643	0.00511
94654	0.00526
94664	0.00564
94676	0.00619
94687	0.00676
94697	0.0073
94708	0.00782
94718	0.00832
94729	0.00876
94740	0.00908
94751	0.00911
94762	0.00851
94772	0.00711
94783	0.00567
94793	0.00485
94803	0.00469
94813	0.00494
94823	0.00542
94833	0.00598
94844	0.00656
94855	0.00718
94866	0.00767
94877	0.00805
94888	0.00824
94898	0.00812
94909	0.00749
94920	0.00652
94930	0.00562
94940	0.00518
94951	0.00515
94961	0.0054
94972	0.00585
94983	0.00643
94994	0.00698
95004	0.00751
95015	0.00801
95025	0.00846
95035	0.00886
95046	0.00913
95056	0.00903
95067	0.00822
95077	0.00677
95088	0.00544
95098	0.00478
95108	0.00471
95119	0.00506
95130	0.00564
95141	0.00622
95151	0.00682
95161	0.00733
95172	0.00781
95183	0.00813
95194	0.00824
95205	0.00792
95215	0.00719
95226	0.00616
95237	0.00542
95247	0.00513
95258	0.00522
95269	0.00561
95280	0.00613
95291	0.00669
95302	0.00726
95313	0.00779
95324	0.0083
95334	0.00874
95345	0.00907
95356	0.00912
95367	0.00855
95377	0.00729
95387	0.0058
95398	0.0049
95408	0.00468
95418	0.00492
95430	0.00546
95440	0.00605
95451	0.00664
95462	0.00723
95472	0.0077
95483	0.00807
95494	0.00824
95504	0.00809
95515	0.00743
95526	0.00646
95537	0.00559
95547	0.00517
95557	0.00515
95568	0.00543
95578	0.00589
95591	0.00651
95601	0.00704
95612	0.00761
95623	0.00812
95633	0.00858
95643	0.00895
95653	0.00915
95664	0.00896
95674	0.00804
95684	0.00658
95694	0.00533
95705	0.00473
95716	0.00475
95726	0.00513
95737	0.00569
95748	0.0063
95758	0.00689
95769	0.00744
95780	0.00788
95790	0.00817
95800	0.00823
95812	0.00787
95823	0.00701
95834	0.00603
95844	0.00535
95854	0.00512
95864	0.00524
95874	0.00558
95885	0.00608
95896	0.00663
95907	0.00722
95918	0.00777
95928	0.00824
95938	0.00867
95948	0.00901
95959	0.00915
95969	0.00885
95979	0.00784
95990	0.00626
96000	0.0051
96011	0.00469
96021	0.00482
96031	0.00523
96041	0.00577
96053	0.00642
96063	0.00698
96073	0.00749
96084	0.00791
96094	0.00819
96104	0.00822
96116	0.0078
96127	0.00693
96137	0.00596
96147	0.00532
96158	0.00511
96168	0.00526
96178	0.00563
96190	0.00617
96201	0.00674
96211	0.00729
96222	0.00781
96233	0.00831
96243	0.00875
96254	0.00908
96265	0.00911
96276	0.00852
96286	0.00725
96296	0.00577
96306	0.00489
96316	0.00468
96327	0.00494
96337	0.00541
96347	0.00597
96358	0.00654
96369	0.00716
96380	0.00766
96391	0.00805
96402	0.00824
96412	0.00813
96423	0.00751
96434	0.00653
96445	0.00563
96455	0.00518
96465	0.00514
96475	0.0054
96486	0.00583
96497	0.00641
96508	0.00696
96518	0.0075
96529	0.008
96539	0.00845
96549	0.00886
96560	0.00913
96571	0.00904
96581	0.00823
96592	0.00678
96602	0.00545
96612	0.00478
96622	0.00471
96633	0.00505
96644	0.00563
96654	0.0062
96665	0.0068
96675	0.00732
96687	0.0078
96697	0.00813
96708	0.00824
96719	0.00793
96729	0.0072
96740	0.00617
96751	0.00542
96761	0.00513
96772	0.00522
96783	0.0056
96794	0.00611
96805	0.00667
96816	0.00725
96827	0.00779
96838	0.00829
96849	0.00874
96859	0.00907
96870	0.00912
96881	0.00857
96891	0.00731
96901	0.00581
96912	0.00491
96922	0.00468
96933	0.00492
96944	0.00545
96954	0.00603
96965	0.00662
96976	0.00721
96987	0.00769
96997	0.00807
97008	0.00824
97018	0.0081
97029	0.00745
97040	0.00648
97051	0.00559
97061	0.00517
97071	0.00515
97082	0.00542
97092	0.00588
97105	0.00649
97115	0.00702
97126	0.0076
97137	0.00812
97147	0.00858
97157	0.00894
97168	0.00915
97178	0.00897
97188	0.00806
97199	0.0066
97209	0.00534
97219	0.00475
97229	0.00473
97239	0.00507
97249	0.00559
97262	0.00628
97272	0.00687
97284	0.00743
97294	0.00787
97305	0.00817
97316	0.00822
97328	0.00779
97338	0.00692
97349	0.00596
97359	0.00532
97369	0.00511
97379	0.00526
97390	0.00563
97401	0.00618
97412	0.00675
97423	0.00729
97433	0.00781
97444	0.00831
97455	0.00876
97466	0.00908
97476	0.00911
97487	0.00851
97498	0.00712
97508	0.00567
97519	0.00485
97529	0.00469
97539	0.00494
97549	0.00541
97559	0.00598
97569	0.00655
97581	0.00717
97592	0.00766
97603	0.00805
97613	0.00824
97623	0.00812
97635	0.0075
97645	0.00652
97656	0.00562
97666	0.00518
97677	0.00515
97687	0.0054
97697	0.00584
97709	0.00642
97720	0.00697
97730	0.0075
97740	0.008
97750	0.00846
97761	0.00886
97771	0.00913
97782	0.00903
97793	0.00822
97803	0.00677
97813	0.00544
97823	0.00478
97834	0.00471
97844	0.00505
97856	0.00564
97866	0.00621
97877	0.00681
97887	0.00732
97898	0.0078
97909	0.00813
97920	0.00824
97931	0.00793
97941	0.00719
97952	0.00617
97962	0.00542
97973	0.00513
97984	0.00522
97995	0.0056
98006	0.00612
98017	0.00668
98028	0.00725
98039	0.00779
98049	0.0083
98060	0.00874
98071	0.00907
98082	0.00912
98092	0.00856
98103	0.0073
98113	0.0058
98123	0.0049
98133	0.00468
98144	0.00492
98155	0.00545
98166	0.00604
98176	0.00663
98188	0.00722
98198	0.00769
98209	0.00807
98220	0.00824
98230	0.00809
98241	0.00744
98252	0.00647
98262	0.00559
98272	0.00517
98283	0.00515
98293	0.00543
98304	0.00589
98316	0.0065
98326	0.00703
98338	0.0076
98348	0.00812
98359	0.00858
98369	0.00895
98379	0.00915
98389	0.00896
98400	0.00805
98410	0.00659
98420	0.00533
98430	0.00475
98441	0.00474
98451	0.00508
98461	0.0056
98473	0.00629
98484	0.00688
98495	0.00744
98506	0.00787
98516	0.00817
98528	0.00822
98539	0.00778
98550	0.00691
98560	0.00595
98570	0.00531
98581	0.00511
98591	0.00526
98601	0.00564
98613	0.00619
98624	0.00676
98634	0.0073
98645	0.00782
98656	0.00832
98666	0.00876
98677	0.00908
98688	0.00911
98699	0.00851
98710	0.00711
98720	0.00566
98730	0.00485
98740	0.00469
98750	0.00494
98761	0.00542
98771	0.00599
98781	0.00656
98793	0.00718
98803	0.00767
98814	0.00805
98825	0.00824
98835	0.00812
98846	0.00749
98857	0.00652
98868	0.00562
98878	0.00518
98888	0.00515
98898	0.0054
98909	0.00585
98921	0.00643
98931	0.00698
98941	0.00751
98952	0.00801
98962	0.00846
98972	0.00886
98983	0.00913
98994	0.00903
99004	0.00822
99015	0.00676
99025	0.00544
99035	0.00478
99045	0.00471
99056	0.00506
99068	0.00564
99078	0.00623
99088	0.00682
99099	0.00733
99110	0.00781
99120	0.00813
99131	0.00824
99142	0.00792
99153	0.00718
99164	0.00616
99174	0.00542
99184	0.00513
99195	0.00522
99206	0.00561
99218	0.00613
99229	0.00669
99239	0.00726
99250	0.00779
99261	0.0083
99272	0.00874
99282	0.00907
99293	0.00912
99304	0.00855
99314	0.00729
99325	0.0058
99335	0.0049
99345	0.00468
99356	0.00492
99367	0.00546
99378	0.00605
99388	0.00665
99399	0.00723
99410	0.0077
99421	0.00807
99431	0.00824
99441	0.00809
99453	0.00743
99463	0.00646
99474	0.00558
99484	0.00517
99494	0.00515
99505	0.00543
99516	0.0059
99528	0.00651
99538	0.00704
99549	0.00761
99560	0.00812
99570	0.00858
99581	0.00895
99591	0.00915
99601	0.00896
99612	0.00804
99622	0.00658
99632	0.00533
99642	0.00473
99653	0.00475
99663	0.00513
99674	0.00569
99685	0.00631
99695	0.00689
99707	0.00744
99717	0.00788
99728	0.00817
99738	0.00823
99749	0.00787
99760	0.00701
99771	0.00603
99781	0.00535
99791	0.00512
99801	0.00524
99811	0.00558
99822	0.00608
99833	0.00663
99844	0.00722
99855	0.00777
99865	0.00824
99875	0.00867
99886	0.00901
99896	0.00915
99906	0.00885
99916	0.00784
99927	0.00626
99937	0.0051
99948	0.00469
99958	0.00482
99968	0.00523
99978	0.00577
99990	0.00642
100000	0.00698
